;  Optical constants for amorphous, polycrystalline
;  or hot-pressed aluminum oxide
; 
;   taken from:
;
;   'Handbook of Optical Constants of Solids II', Ed. by Edward D. Palik,
;   Academic Press, Inc., 1991.
;   
;    Lambda (A)            n            k
;-----------------------------------------
       123.980 0.967 0.033
       125.232 0.968 0.034
       126.510 0.968 0.034
       127.814 0.968 0.034
       129.146 0.969 0.033
       130.505 0.969 0.033
       131.894 0.970 0.032
       133.312 0.969 0.032
       134.761 0.968 0.031
       136.242 0.968 0.030
       137.756 0.967 0.029
       139.303 0.966 0.029
       140.886 0.965 0.030
       142.506 0.963 0.031
       144.163 0.962 0.032
       145.859 0.961 0.033
       147.595 0.960 0.034
       149.373 0.959 0.035
       151.195 0.958 0.035
       153.062 0.955 0.037
       154.975 0.956 0.044
       156.937 0.958 0.042
       158.949 0.960 0.040
       161.013 0.961 0.038
       163.132 0.963 0.035
       165.307 0.960 0.030
       167.541 0.957 0.032
       169.836 0.954 0.033
       172.194 0.952 0.034
       174.620 0.949 0.036
       177.114 0.946 0.037
       179.681 0.944 0.038
       182.324 0.941 0.040
       185.045 0.938 0.041
       187.848 0.935 0.042
       190.738 0.933 0.044
       193.719 0.930 0.046
       196.794 0.928 0.048
       199.968 0.925 0.049
       203.246 0.923 0.051
       206.633 0.920 0.053
       210.136 0.917 0.056
       213.759 0.914 0.060
       217.509 0.911 0.063
       221.393 0.908 0.067
       225.418 0.905 0.070
       229.593 0.902 0.074
       233.925 0.899 0.077
       238.423 0.895 0.081
       243.098 0.892 0.085
       247.960 0.889 0.088
       253.020 0.886 0.092
       258.292 0.883 0.095
       263.787 0.879 0.102
       269.522 0.875 0.109
       275.511 0.871 0.115
       281.773 0.866 0.122
       288.326 0.862 0.129
       295.190 0.858 0.136
       302.390 0.854 0.143
       309.950 0.850 0.150
       317.897 0.845 0.159
       326.263 0.839 0.171
       335.081 0.834 0.182
       344.389 0.828 0.194
       354.229 0.823 0.205
       364.647 0.817 0.217
       375.697 0.812 0.229
       387.438 0.805 0.248
       399.935 0.798 0.266
       413.267 0.791 0.285
       427.517 0.782 0.307
       442.786 0.774 0.330
       459.185 0.762 0.362
       476.846 0.750 0.395
       495.920 0.737 0.436
       516.583 0.730 0.500
       539.043 0.737 0.574
       563.545 0.764 0.651
       590.381 0.805 0.725
       619.900 0.856 0.774
       652.526 0.896 0.832
       688.778 0.953 0.916
       729.294 1.037 0.998
       774.875 1.149 1.078
       826.533 1.297 1.135
       885.571 1.465 1.166
       953.692 1.657 1.179
       1033.17 1.885 1.171
       1127.09 2.231 1.109
       1239.80 2.519 0.629
       1377.56 2.338 0.108
       1549.75 2.074 0.032
       1771.14 1.939 0.007
       99983.9 0.92 0.04
       100961. 0.88 0.05
       102041. 0.83 0.05
       103059. 0.78 0.05
       104185. 0.74 0.06
       105246. 0.68 0.06
       106329. 0.63 0.07
       107528. 0.55 0.09
       108659. 0.47 0.11
       109911. 0.36 0.16
       111093. 0.28 0.25
       112301. 0.23 0.34
       113639. 0.16 0.45
       114903. 0.13 0.56
       116304. 0.12 0.66
       117628. 0.12 0.76
       118983. 0.11 0.85
       120486. 0.11 0.92
       121908. 0.12 1.01
       123486. 0.12 1.09
       124980. 0.13 1.17
       126562. 0.13 1.24
       128184. 0.13 1.32
       129849. 0.13 1.40
       131558. 0.13 1.49
       133312. 0.13 1.58
       135113. 0.13 1.66
       136964. 0.14 1.77
       138866. 0.14 1.88
       140822. 0.14 2.00
       142834. 0.14 2.13
       144904. 0.15 2.25
       147035. 0.15 2.40
       149230. 0.17 2.59
       151491. 0.18 2.79
       153821. 0.21 3.10
       156225. 0.45 3.74
       158705. 1.19 2.91
       161264. 0.36 3.27
       163908. 0.32 4.00
       166640. 0.37 4.82
       169464. 0.69 6.39
       172386. 4.15 8.73
       175410. 7.85 4.57
       178543. 6.60 1.38
       181789. 4.86 0.62
       185155. 3.98 0.45
       188649. 3.35 0.37
       192277. 2.80 0.35
       196047. 2.10 0.45
       199968. 1.67 0.90
       204049. 1.45 1.03
       208300. 0.48 1.43
       212732. 0.23 2.60
       217356. 0.30 3.83
       222186. 0.57 5.60
       227236. 4.90 9.00
       232521. 6.32 4.03
       238057. 6.15 2.90
       243863. 5.70 2.08
       249960. 5.37 1.84
