;  Optical constants for Al2O3.
; 
;   taken from:
;
;   Hagemann et al. in 
;
;   J. H. Weaver, C. Krafka, D. W. Lynch, and E. E. Koch, 'Physik Daten,
;   Physics Data: Optical Properties of Metals', Vol. 18-1 and 18-2,
;   Fach-information zentrum, Karlsruhe, 1981.
;   
;    Lambda (A)            n            k
;-----------------------------------------
   7.7488    1.000	9.14e-5
   7.9987    1.000	2.97e-5
   8.2653    1.000	3.4e-5
   8.86      1.000	4.5e-5
   10.332    1.00	8.10e-5
   12.398    .999	1.61e-4
   15.498    .999	3.49e-4
   20.663    .999	9.77e-4
   22.542    .999	8.09e-4
   24.796    .998	4.02e-4
   30.995    .997	7.29e-4
   35.423    .995	1.24e-3
   41.327    .994	1.81e-3 
   49.592    .991	3.26e-3
   61.990    .987	5.33e-3
   68.878    .985	7.09e-3
   77.488    .982	9.77e-3
   82.65     .980	1.13e-2
   88.557    .978	1.33e-2
   89.841    .978	1.35e-2
   91.162    .977	1.39e-2
   92.522    .976	1.43e-2
   95.369    .975	1.56e-2
   98.397    .974	1.71e-2
   99.984    .974	1.81e-2
   101.62    .973	1.83e-2
   103.32    .973	1.85e-2
   107.81    .970	2.04e-2
   112.71    .968	2.33e-2
   118.08    .966	2.75e-2
   123.98    .966	3.32e-2
   126.51    .969	3.46e-2
   129.15    .971	3.41e-2
   131.89    .972	3.14e-2
   134.76    .970	2.91e-2
   136.24    .968	2.84e-2
   137.76    .966	2.86e-2
   139.30    .964	2.95e-2
   140.89    .963	3.07e-2
   142.51    .962	3.2e-2
   144.16    .962	3.3e-2
   145.86    .961	3.37e-2
   147.60    .960	3.43e-2
   149.37    .959	3.5e-2
   151.20    .957	3.65e-2
   153.06    .956	3.65e-2
   154.01    .958	4.31e-2
   154.98    .961	4.45e-2
   155.95    .965	4.30e-2
   156.94    .966	3.98e-2
   157.94    .965	.0372
   158.95    .963	.0363
   159.97    .963	.0392
   161.01    .967	.0372
   162.07    .966	.0305
   163.13    .961	.0298
   164.21    .958	.0302
   165.31    .957	.0306
   166.42    .955	.0311
   167.54    .953	.0317
   169.84    .951	.0329
   172.19    .948	.0341
   177.11    .944	.0365
   190.74    .933	.0438
   206.63    .920	.0541
   225.42    .907	.0686
   247.96    .892	.0864
   275.51    .872	.111
   309.95    .848	.148
   354.23    .823	.203
   413.27    .794	.282
   442.79    .774	.327
   476.85    .748	.393
   516.58    .722	.502
   563.55    .765	.651
   590.38    .812	.723
   604.78    .841	.747
   619.90    .862	.769
   635.79    .880	.794
   652.53    .896	.825
   688.78    .947	.912
   729.29    1.035	.997	
   774.88    1.148	1.075
   826.53    1.293	1.14
   855.03    1.379	1.16
   885.57    1.471	1.16
   918.37    1.555	1.17
   953.69    1.649	1.17
   991.84    1.753	1.17
   1033.2    1.868	1.17
   1078.1    2.017	1.16
   1127.1    2.218	1.11
   1180.8    2.484	.951
   1239.8    2.582	.597
   1305.1    2.542	.253
   1377.6    2.297	.895
