;  Optical constants for
; 
;   taken from:
;
;   D. L. Windt, Webster C. Cash, Jr., M. Scott, P. Arendt, B. Newnam,
;   R. F. Fisher, and A. B. Swartzlander, 'Optical Constants for thin films
;   of Ti, Zr, Nb, Mo, Ru, Rh, Pd, Ag, Hf, Ta, W, Re, Ir, Os, Pt, and Au
;   from 24 to 1216 A', App. Opt., 27, 246, 1988.
;   
;    Lambda (A)            n            k
;-----------------------------------------
13.336	.9993787	.0000804100
14.561	.99926078	.000106030
15.286	.99929422	.000100029
15.972	.99913746	.000132528
16.693	.99907303	.000176799
17.59	.99895531	.000225108
18.292	.99887830	.000254413
19.45	.99870521	.000295835
20.15	.99870658	.000348914
21.64	.99848121	.000427836
22.29	.99832535	.000497251
23.62	.99821597	.000550428
24.25	.99808216	.000566288
24.78	.99809444	.000664356
27.42	.99754161	.000963604
27.77	.99750763	.000918983
31.36	.99714947	.00146267
36.8	.99803215	.00117316
39.77	.99576515	.00362723
43.6	1.0032233	.00756956
44.7	.99916667	.000289647
47.67	.99706560	.000462874
52.34	.99519682	.000628174
64.38	.99147296	.00133173
67.67	.99076247	.00125489
72.19	.98939246	.00133626
82.1	.98585987	.00210466
93.4	.98137796	.00270896
108.7	.97416186	.00438985
114	.97261131	.00500302
128.7	.96287769	.00699218
135.5	.96084458	.00803566
171.4	.93552977	.0204586
218	.89853817	.0391020
228	.89462769	.0449299
237.389 .87929994	.0531194
243.027 .87048340	.0586706
256.314 .85708100	.0670727
267.059	.84104162	.0738275
283.206	.82987195	.0873247
303.781 .81777322	.10678
