;  Optical constants for sputtered Si
; 
;   taken from:
;
;   D. L. Windt, upublished (1992)
;   
;    Lambda (A)            n            k
;-----------------------------------------
      120.000      1.00431    0.0221211
      120.500      1.00167    0.0203141
      121.000      1.00076    0.0198737
      121.500      1.00087    0.0195391
      122.000      1.00007    0.0191605
      122.500      .998857    0.0179625
      123.000      .998121    0.0180799
      123.500      .999285    0.0185909
      124.000      1.00047    0.0192220
      124.500      1.00460    0.0192232
      125.000      1.00786    0.0179767
      125.500      1.01295    0.0159349
      126.000      1.01417    0.0133689
      126.500      1.01455    0.0117189
      127.000      1.01276    0.0109462
      127.500      1.01169    0.0109940
      128.000      1.01050    0.0111748
      128.500      1.00961    0.0118803
      129.000      1.00888    0.0120077
      129.500      1.00793    0.0119032
      130.000      1.00590    0.0110326
      130.500      1.00259    0.0105520
      131.000      .999719   0.00969645
      131.500      .997877   0.00868095
      132.500      .996882   0.00724584
      133.000      .996086   0.00639133
      133.500      .995358   0.00591203
      134.000      .994889   0.00545119
      134.500      .994475   0.00476965
      135.000      .994171   0.00419288
      135.500      .993991   0.00399740
      136.000      .993863   0.00397555
      136.500      .993744   0.00388176
      137.000      .993681   0.00365844
      137.500      .993599   0.00348287
      138.000      .993445   0.00343511
      138.500      .993208   0.00346299
      139.000      .993018   0.00339586
      139.500      .992878   0.00322523
      140.000      .992729   0.00308645
      140.500      .992462   0.00310827
      141.000      .992171   0.00319702
      141.500      .991865   0.00342670
      142.000      .991671   0.00363511
      142.500      .991343   0.00386902
      143.000      .991113   0.00377210
      143.500      .990841   0.00360886
      144.000      .990826   0.00339058
      144.500      .992836   0.00328996
      145.000      .996907   0.00307945
      145.500      1.00294   0.00288097
      146.000      1.00697   0.00277841
      146.500      1.01088   0.00300895
      147.000      1.01471   0.00343524
      147.500      1.01858   0.00380914
      148.000      1.01878   0.00368577
      148.500      1.01521   0.00315836
      149.000      1.01155   0.00258110
      149.500      1.00966   0.00226287
      150.000      1.00954   0.00214639
