;  Optical constants for a-Si:H, amorphous glow-discharge Si onto
;  400 C substrates, ~4 at.% H
; 
;   taken from:
;
;   'Handbook of Optical Constants of Solids', Ed. by Edward D. Palik,
;   Academic Press, Inc., 1985.
;   
;    Lambda (A)            n            k
;-----------------------------------------
       1180.76      0.488000       1.00000
       1239.80      0.466000       1.09000
       1305.05      0.467000       1.20000
       1377.56      0.499000       1.33000
       1458.59      0.515000       1.49000
       1549.75      0.554000       1.66000
       1653.07      0.614000       1.83000
       1771.14      0.670000       2.08000
       1907.38      0.774000       2.35000
       2066.33      0.961000       2.65000
       2254.18       1.23000       2.99000
       2479.60       1.66000       3.38000
       2755.11       2.31000       3.71000
       3099.50       3.36000       3.92000
       3542.29       4.59000       3.38000
       4132.67       5.43000       2.19000
       4959.20       5.25000      0.992000
       6199.00       4.71000      0.217000
       8265.33       4.13000       0.00000
       12398.0       3.83000       0.00000
       24796.0       3.74000       0.00000
       25209.4       2.99000       0.00000
       26167.2       3.00000       0.00000
       27320.4       2.99000       0.00000
       28540.5       2.99000       0.00000
       29903.5       3.00000       0.00000
       31451.0       3.00000       0.00000
       33052.5       2.99000       0.00000
       35052.3       2.99000       0.00000
       37153.1       2.99000       0.00000
       39458.9       2.98000       0.00000
       42055.6       2.98000       0.00000
       44709.7       2.96000       0.00000
       46539.0       2.93000       0.00000
       47248.5       2.97000       0.00000
       49473.3       3.01000       0.00000
       50894.9       2.99000       0.00000
       53439.7       2.99000       0.00000
       55821.7       2.98000       0.00000
       58124.7       2.99000       0.00000
       60507.6       2.98000       0.00000
       63644.8       2.98000       0.00000
       67016.2       2.96000       0.00000
       70886.2       2.95000       0.00000
       76154.8       2.95000       0.00000
       81405.1       2.94000       0.00000
       85034.3       2.91000       0.00000
       96859.4       2.85000       0.00000
       106787.       2.85000       0.00000
       119556.       2.90000       0.00000
       130684.       2.82000       0.00000
       141015.       2.80000       0.00000
       183294.       3.12000       0.00000
       206771.       2.94000       0.00000
       233133.       2.87000       0.00000
       294559.       2.96000       0.00000
       390120.       2.78000       0.00000
