;  Optical constants for Ag.
; 
;   taken from:
; 
;   Hagemann, et al., in
;
;   'Handbook of Optical Constants of Solids', Ed. by Edward D. Palik,
;   Academic Press, Inc., 1985.
;
;   and
; 
;   J. H. Weaver, C. Krafka, D. W. Lynch, and E. E. Koch, 'Physik Daten,
;   Physics Data: Optical Properties of Metals', Vol. 18-1 and 18-2,
;   Fach-information zentrum, Karlsruhe, 1981.
;   
;    Lambda (A)            n            k
;-----------------------------------------
   1.2398    .9990	1.29e-6
   1.5497    1.000	2.92e-6
   2.0663    1.002	8.36e-6
   2.4796    1.001	1.52e-5
   2.7551    1.001	2.21e-5
   3.099     1.003	3.57e-5
   3.4439    1.003	3.24e-5 
   3.5423    1.003	1.72e-5
   4.1327    1.003	1.43e-5
   4.9592    1.001	2.40e-5
   6.1990    1.001	4.72e-5
   8.2653    .999	1.21e-4
   12.398    .998	5.23e-4
   15.498    .997	1.08e-3
   16.754    .998	1.42e-3
   20.663    .997	2.69e-3
   24.796    .997	4.57e-3
   30.995    .998	8.82e-3
   33.508    1.007	8.23e-3
   35.423    1.001	1.68e-3
   41.327    .996	2.32e-3
   44.279    .994	2.7e-3
   47.685    .992	3.11e-3
   51.658    .989	3.50e-3
   56.355    .987	3.45e-3
   61.990    .982	3.77e-3
   68.878    .978	4.31e-3
   72.929    .973	4.42e-3
   77.488    .968	4.38e-3
   82.653    .963	4.07e-3
   88.557    .955	3.54e-3
   95.369    .943	3.66e-3
   103.32    .926	6.22e-3
   112.7     .902	.0172
   118.08    .890	.0261
   123.98    .876	.0382
   130.51    .861	.0565 
   137.76    .849	.0824
   145.86    .846	.111
   154.98    .848	.139
   158.95    .851	.149
   163.13    .853	.158
   167.54    .853	.166
   172.19    .851	.181
   177.11    .859	.197
   182.32    .871	.208
   187.85    .883	.211
   193.72    .885	.210
   199.97    .881	.2111
   206.63    .873	.221
   213.76    .868	.237
   221.39    .871	.259
   229.59    .885	.274
   233.92    .890	.275
   238.42    .889	.276
   243.10    .886	.281
   247.96    .884	.290
   253.02    .885	.300
   258.29    .888	.309
   263.79    .893	.317
   269.52    .896	.323
   281.77    .899	.334
   295.19    .897	.349
   309.95    .896	.368
   317.90    .895	.378
   326.26    .892	.388
   335.08    .885	.400
   344.39    .876	.418
   354.23    .865	.454
   364.65    .879	.489
   375.70    .899	.514
   387.44    .921	.528
   399.94    .932	.534
   413.27    .931	.541
   427.52    .919	.557
   435.02    .911	.572
   442.79    .902	.590
   450.84    .851	.616
   459.19    .886	.650
   467.85    .89	.69
   476.85    .90	.74
   486.20    .91	.78
   495.92    .95	.83
   506.04    .99	.87
   516.58    1.04	.90
   527.58    1.10	.93
   539.04    1.17	.94
   551.02    1.26	.93
   563.55    1.34	.87
   576.65    1.37	.80
   590.38    1.35	.75
   619.9     1.29	.71
   652.53    1.27	.75
   688.78    1.28	.80
   729.29    1.33	.86
   774.88    1.42	.91
   826.53    1.56	.92
   855.04    1.64	.88
   885.57    1.72	.78
   953.69    1.66	.64
   1033.17   1.61	.59
   1127.09   1.52	.56 
   1239.80   1.46	.56
   1377.56   1.33	.56
