;  Optical constants for Ag
; 
;   taken from:
;
;   'Handbook of Optical Constants of Solids', Ed. by Edward D. Palik,
;   Academic Press, Inc., 1985.
;   
;    Lambda (A)            n            k
;-----------------------------------------
       1.24000      0.999000   1.29000e-06
       1.55000       1.00000   2.92000e-06
       2.06600       1.00200   8.36000e-06
       2.48000       1.00100   1.52000e-05
       2.75500       1.00100   2.21000e-05
       3.09900       1.00300   3.57000e-05
       3.44400       1.00300   3.24000e-05
       3.54200       1.00300   1.72000e-05
       4.13300       1.00100   1.43000e-05
       4.95900       1.00100   2.40000e-05
       6.19900       1.00100   4.72000e-05
       8.26500      0.999000   0.000121000
       12.4000      0.998000   0.000523000
       15.5000      0.997000    0.00108000
       16.7500      0.998000    0.00142000
       20.6600      0.997000    0.00269000
       24.8000      0.997000    0.00457000
       30.9900      0.998000    0.00882000
       33.5100       1.00700    0.00823000
       35.4200       1.00100    0.00168000
       41.3300      0.996000    0.00232000
       44.2800      0.994000    0.00270000
       47.6800      0.992000    0.00311000
       51.6600      0.989000    0.00350000
       56.3500      0.987000    0.00345000
       61.9900      0.982000    0.00377000
       68.8800      0.978000    0.00431000
       72.9300      0.973000    0.00442000
       77.4900      0.968000    0.00438000
       82.6500      0.963000    0.00407000
       88.5600      0.955000    0.00354000
       95.3700      0.943000    0.00366000
       103.300      0.926000    0.00622000
       112.700      0.902000     0.0172000
       118.100      0.890000     0.0261000
       124.000      0.876000     0.0382000
       130.500      0.861000     0.0565000
       137.800      0.849000     0.0824000
       145.900      0.846000      0.111000
       155.000      0.848000      0.139000
       158.900      0.851000      0.149000
       163.100      0.853000      0.158000
       167.500      0.853000      0.166000
       172.200      0.851000      0.181000
       177.100      0.859000      0.197000
       182.300      0.871000      0.208000
       187.800      0.883000      0.211000
       193.700      0.885000      0.210000
       200.000      0.881000      0.211000
       206.600      0.873000      0.221000
       213.800      0.868000      0.237000
       221.400      0.871000      0.259000
       229.600      0.885000      0.274000
       233.900      0.890000      0.275000
       238.400      0.889000      0.276000
       243.100      0.886000      0.281000
       248.000      0.884000      0.290000
       253.000      0.885000      0.300000
       258.300      0.888000      0.309000
       263.800      0.893000      0.317000
       269.500      0.896000      0.323000
       281.800      0.899000      0.334000
       295.200      0.897000      0.349000
       309.900      0.896000      0.368000
       317.900      0.895000      0.378000
       326.300      0.892000      0.388000
       335.100      0.885000      0.400000
       344.400      0.876000      0.418000
       354.200      0.865000      0.454000
       364.600      0.879000      0.489000
       375.700      0.899000      0.514000
       387.400      0.921000      0.528000
       399.900      0.932000      0.534000
       413.200      0.931000      0.541000
       427.500      0.919000      0.557000
       435.000      0.911000      0.572000
       442.800      0.902000      0.590000
       450.800      0.851000      0.616000
       459.200      0.886000      0.650000
       459.200      0.882000      0.399000
       467.900      0.886000      0.421000
       476.900      0.887000      0.444000
       486.200      0.891000      0.468000
       506.100      0.906000      0.522000
       527.600      0.943000      0.584000
       539.100      0.980000      0.614000
       551.000       1.02900      0.624000
       563.600       1.07500      0.615000
       576.700       1.10400      0.584000
       590.400       1.10900      0.561000
       604.800       1.10500      0.549000
       619.900       1.09800      0.548000
       652.600       1.09600      0.565000
       688.800       1.10100      0.593000
       729.300       1.12100      0.635000
       774.900       1.16700      0.676000
       799.900       1.20200      0.691000
       826.600       1.24300      0.693000
       855.100       1.28100      0.679000
       885.600       1.30800      0.656000
       918.400       1.32200      0.628000
       953.700       1.32200      0.603000
       991.900       1.31500      0.588000
       1025.00       1.30800      0.581000
       1051.00       1.30400      0.578000
       1078.00       1.30000      0.573000
       1107.00       1.29300      0.566000
       1137.00       1.28000      0.560000
       1170.00       1.26500      0.560000
       1204.00       1.25200      0.564000
       1240.00       1.24100      0.568000
       1278.00       1.22900      0.566000
       1348.00       1.18200      0.550000
       1378.00       1.14900      0.552000
       1409.00       1.11200      0.563000
       1442.00       1.07300      0.581000
       1476.00       1.03200      0.610000
       1512.00      0.993000      0.653000
       1550.00      0.962000      0.706000
       1590.00      0.940000      0.770000
       1631.00      0.935000      0.832000
       1675.00      0.936000      0.892000
       1722.00      0.942000      0.951000
       1771.00      0.953000       1.01000
       1823.00      0.969000       1.07000
       1879.00      0.995000       1.13000
       1937.00       1.02800       1.18000
       1968.00       1.04800       1.21000
       2000.00       1.07200       1.24000
       2033.00       1.09800       1.26000
       2066.00       1.12500       1.27000
       2138.00       1.17300       1.29000
       2214.00       1.20800       1.30000
       2296.00       1.23800       1.31000
       2384.00       1.26500       1.33000
       2480.00       1.29800       1.35000
       2530.00       1.32000       1.35000
       2583.00       1.34300       1.35000
       2638.00       1.37200       1.35000
       2695.00       1.40400       1.33000
       2755.00       1.44100       1.31000
       2818.00       1.47600       1.26000
       2883.00       1.50200       1.19000
       2952.00       1.51900       1.08000
       2988.00       1.52200      0.992000
       3024.00       1.49600      0.882000
       3061.00       1.43200      0.766000
       3100.00       1.32300      0.647000
       3115.00       1.24600      0.586000
       3139.00       1.14900      0.540000
       3155.00       1.04400      0.514000
       3179.00      0.932000      0.504000
       3195.00      0.815000      0.526000
       3220.00      0.708000      0.565000
       3237.00      0.616000      0.609000
       3263.00      0.526000      0.663000
       3306.00      0.371000      0.813000
       3324.00      0.321000      0.902000
       3351.00      0.294000      0.986000
       3397.00      0.259000       1.12000
       3444.00      0.238000       1.24000
       3542.00      0.209000       1.44000
       3647.00      0.186000       1.61000
       3757.00      0.200000       1.67000
       3875.00      0.192000       1.81000
       4000.00      0.173000       1.95000
       4133.00      0.173000       2.11000
       4275.00      0.160000       2.26000
       4428.00      0.157000       2.40000
       4592.00      0.144000       2.56000
       4769.00      0.132000       2.72000
       4959.00      0.130000       2.88000
       5166.00      0.130000       3.07000
       5391.00      0.129000       3.25000
       5636.00      0.120000       3.45000
       5904.00      0.121000       3.66000
       6199.00      0.131000       3.88000
       6526.00      0.140000       4.15000
       6888.00      0.140000       4.44000
       7293.00      0.148000       4.74000
       7749.00      0.143000       5.09000
       8266.00      0.145000       5.50000
       8856.00      0.163000       5.95000
       9537.00      0.198000       6.43000
       10330.0      0.226000       6.99000
       11270.0      0.251000       7.67000
       12400.0      0.329000       8.49000
       12650.0      0.375000       7.78000
       12910.0      0.383000       7.92000
       13050.0      0.358000       8.95000
       13190.0      0.392000       8.06000
       13480.0      0.401000       8.21000
       13780.0      0.411000       8.37000
       13780.0      0.396000       9.48000
       14090.0      0.421000       8.37000
       14420.0      0.431000       8.70000
       14590.0      0.446000       10.1000
       14760.0      0.442000       8.88000
       15120.0      0.455000       9.08000
       15500.0      0.469000       9.32000
       15500.0      0.514000       10.8000
       15900.0      0.485000       9.57000
       16310.0      0.501000       9.84000
       16530.0      0.624000       11.5000
       16750.0      0.519000       10.1000
       17220.0      0.537000       10.4000
       17710.0      0.557000       10.7000
       17710.0      0.844000       12.2000
       18230.0      0.578000       11.1000
       18790.0      0.600000       11.4000
       19070.0      0.873000       13.3000
       19370.0      0.624000       11.8000
       20000.0      0.650000       12.2000
       20660.0      0.668000       12.6000
       20660.0       1.06400       14.4000
       21380.0      0.729000       13.0000
       22140.0      0.774000       13.5000
       22960.0      0.823000       14.0000
       23840.0      0.878000       14.5000
       24800.0      0.939000       15.1000
       25830.0       1.00700       15.7000
       26950.0       1.08300       16.4000
       28180.0       1.16800       17.1000
       29520.0       1.26500       17.9000
       31000.0       1.38700       18.8000
       32630.0       1.53600       19.8000
       34440.0       1.71000       20.9000
       36470.0       1.91500       22.1000
       38750.0       2.16000       23.5000
       41330.0       2.44600       25.1000
       44280.0       2.78600       26.9000
       47690.0       3.20200       29.0000
       51660.0       3.73200       31.3000
       56360.0       4.42500       34.0000
       61990.0       5.35500       37.0000
       65260.0       5.96000       38.6000
       68880.0       6.67000       40.4000
       72930.0       7.46100       42.5000
       77490.0       8.37600       44.8000
       82660.0       9.44100       47.1000
       88560.0       10.6900       49.4000
       95370.0       12.2100       52.2000
       99190.0       13.1100       53.7000
