;  Optical constants for Ag
; 
;   taken from:
;
;   D. L. Windt, Webster C. Cash, Jr., M. Scott, P. Arendt, B. Newnam,
;   R. F. Fisher, and A. B. Swartzlander, 'Optical Constants for thin films
;   of Ti, Zr, Nb, Mo, Ru, Rh, Pd, Ag, Hf, Ta, W, Re, Ir, Os, Pt, and Au
;   from 24 to 1216 A', App. Opt., 27, 246, 1988.
;   
;    Lambda (A)            n            k
;-----------------------------------------
   23.620      .99667	.00774
   31.600      .9977	.0053	
   44.700      .99198	.00237	
   67.600      .98132	.00291	
   114.00      .9172	.00818	
   135.50      .86	.0423	
   171.40      .863	.293	
   243.03      .928	.31	
   256.32      .927	.346	
   303.78      .895	.302	
   327.00      .894	.304	
   356.80      .872	.351	
   379.31      .896	.427	
   405.85      .953	.451	
   447.81      .889	.425	
   460.73      .848	.446	
   489.50      .833	.507	
   539.09      1.04	.746	
   584.33      1.09	.658	
   616.29      1.06	.564	
   671.39      1.03	.586	
   718.48      .982	.596	
   735.90      1.13	.751	
   743.72      1.17	.721	
   834.46      1.28	.750	
   878.00      1.37	.688	
   919.78      1.32	.657	
   932.05      1.27	.625	
   988.78      1.32	.586	
   1025.8      1.23	.571	
   1048.2      1.27	.577	
   1066.7      1.30	.565	
   1085.7      1.30	.55	
   1135.0      1.33	.518	
   1200.7      1.27	.49	
   1215.7      1.21	.515	
