;  Optical constants for cubic Al0.3Ga0.7As
; 
;   taken from:
;
;   'Handbook of Optical Constants of Solids II', Ed. by Edward D. Palik,
;   Academic Press, Inc., 1991.
;   
;    Lambda (A)            n            k
;-----------------------------------------
       1.23980      0.999991   1.74000e-07
       1.26873      0.999991   1.90000e-07
       1.32869      0.999990   2.27000e-07
       1.39163      0.999989   2.71000e-07
       1.45739      0.999988   3.23000e-07
       1.52628      0.999987   3.85000e-07
       1.59850      0.999985   4.59000e-07
       1.67405      0.999984   5.46000e-07
       1.75311      0.999982   6.50000e-07
       1.83620      0.999981   7.73000e-07
       1.92306      0.999979   9.20000e-07
       2.01397      0.999977   1.09000e-06
       2.10922      0.999974   1.30000e-06
       2.20880      0.999972   1.55000e-06
       2.31349      0.999969   1.84000e-06
       2.42290      0.999966   2.18000e-06
       2.53745      0.999962   2.59000e-06
       2.65766      0.999959   3.08000e-06
       2.78294      0.999955   3.66000e-06
       2.91443      0.999950   4.34000e-06
       3.05219      0.999945   5.15000e-06
       3.19701      0.999940   6.11000e-06
       3.34810      0.999934   7.24000e-06
       3.50622      0.999928   8.59000e-06
       3.67239      0.999920   1.02000e-05
       3.84553      0.999913   1.21000e-05
       4.02794      0.999904   1.43000e-05
       4.21844      0.999895   1.69000e-05
       4.41682      0.999885   2.00000e-05
       4.62612      0.999875   2.37000e-05
       4.84486      0.999863   2.80000e-05
       5.07491      0.999850   3.30000e-05
       5.31419      0.999837   3.90000e-05
       5.56463      0.999822   4.60000e-05
       5.82887      0.999807   5.42000e-05
       6.10438      0.999791   6.38000e-05
       6.39402      0.999774   7.49000e-05
       6.69438      0.999757   8.80000e-05
       7.01244      0.999739   0.000103000
       7.34479      0.999723   0.000121000
       7.69107      0.999710   0.000142000
       7.87175      0.999708   0.000153000
       8.05588      0.999706   0.000158000
       8.24335      0.999697   0.000158000
       8.43401      0.999687   0.000170000
       8.63371      0.999683   0.000183000
       8.83678      0.999683   0.000198000
       9.04303      0.999692   0.000214000
       9.25224      0.999735   0.000231000
       9.47135      0.999732   0.000123000
       9.68594      0.999684   0.000121000
       9.91840      0.999652   0.000129000
       10.1457      0.999629   0.000138000
       10.3836      0.999612   0.000147000
       10.6238      0.999601   0.000157000
       10.8754      0.999603   0.000167000
       11.1293      0.999635   6.37000e-05
       11.3952      0.999554   6.88000e-05
       11.6523      0.999503   7.43000e-05
       11.9326      0.999461   8.02000e-05
       12.2028      0.999421   8.66000e-05
       12.7854      0.999342   0.000101000
       13.3902      0.999261   0.000118000
       14.0233      0.999175   0.000138000
       14.6861      0.999083   0.000161000
       15.3821      0.998980   0.000188000
       16.1076      0.998880   0.000221000
       16.8703      0.998760   0.000259000
       17.6685      0.998630   0.000303000
       18.5045      0.998500   0.000354000
       19.3779      0.998350   0.000412000
       20.2946      0.998190   0.000479000
       21.2549      0.998020   0.000555000
       22.2585      0.997840   0.000643000
       23.3133      0.997640   0.000745000
       24.4151      0.997430   0.000859000
       25.5682      0.997200   0.000989000
       26.7775      0.996950    0.00114000
       28.0434      0.996690    0.00131000
       29.3722      0.996410    0.00150000
       30.7643      0.996110    0.00173000
       32.2193      0.995810    0.00197000
       33.7361      0.995480    0.00224000
       35.3320      0.995130    0.00255000
       37.0090      0.994760    0.00290000
       38.7559      0.994380    0.00330000
       40.5827      0.994010    0.00375000
       42.5026      0.993610    0.00423000
       44.5171      0.993210    0.00477000
       46.6266      0.992830    0.00536000
       48.8302      0.992430    0.00600000
       51.1258      0.992030    0.00669000
       53.5551      0.991630    0.00744000
       56.0742      0.991250    0.00829000
       58.7305      0.990960    0.00920000
       61.5285      0.990690     0.0101000
       64.4387      0.990350     0.0110000
       67.4905      0.990080     0.0120000
       70.6439      0.989880     0.0131000
       74.0179      0.989660     0.0141000
       77.4875      0.989470     0.0153000
       81.1919      0.989310     0.0165000
       83.0409      0.989280     0.0171000
       85.0343      0.989300     0.0178000
       87.0035      0.989330     0.0184000
       89.0022      0.989370     0.0190000
       91.0948      0.989410     0.0195000
       93.2180      0.989420     0.0201000
       95.4426      0.989440     0.0207000
       97.6220      0.989480     0.0213000
       99.9033      0.989560     0.0219000
       102.294      0.989670     0.0224000
       104.624      0.989720     0.0230000
       107.064      0.989780     0.0235000
       109.620      0.989850     0.0240000
       112.199      0.989940     0.0245000
       114.796      0.989990     0.0250000
       117.517      0.990010     0.0254000
       120.252      0.990020     0.0259000
       122.996      0.990030     0.0264000
       125.906      0.990050     0.0268000
       128.851      0.990070     0.0272000
       131.852      0.990020     0.0276000
       134.937      0.989950     0.0280000
       138.093      0.989880     0.0284000
       141.320      0.989830     0.0289000
       144.617      0.989870     0.0292000
       148.000      0.989780     0.0295000
       151.472      0.989620     0.0297000
       154.994      0.989420     0.0300000
       158.623      0.989240     0.0303000
       162.341      0.989090     0.0306000
       166.126      0.989110     0.0309000
       170.022      0.989570     0.0312000
       173.983      0.988500     0.0291000
       178.055      0.987270     0.0294000
       182.216      0.986370     0.0297000
       186.464      0.985540     0.0299000
       190.827      0.984620     0.0300000
       195.275      0.983700     0.0301000
       199.839      0.982720     0.0302000
       204.520      0.981620     0.0302000
       209.284      0.980380     0.0301000
       214.202      0.978980     0.0301000
       219.201      0.977460     0.0301000
       224.317      0.975820     0.0302000
       229.550      0.974070     0.0303000
       234.944      0.972210     0.0303000
       240.411      0.970077     0.0305000
       6887.78       3.79700       0.00000
       7292.94       3.58000       0.00000
       7748.75       3.49800       0.00000
       8265.33       3.44300       0.00000
       8855.71       3.40300       0.00000
       9536.92       3.37200       0.00000
       10331.7       3.34600       0.00000
       11270.9       3.32600       0.00000
       12398.0       3.30800       0.00000
       13775.6       3.29400       0.00000
       15497.5       3.28200       0.00000
       17711.4       3.27100       0.00000
       20663.3       3.26300       0.00000
       24796.0       3.25600       0.00000
       49991.9       3.17900       0.00000
       60009.7       3.17500       0.00000
       70005.6       3.17000       0.00000
       79987.1       3.16400       0.00000
       89971.0       3.15700       0.00000
       99983.9       3.15000       0.00000
       101043.       3.14900       0.00000
       102041.       3.14800       0.00000
       103059.       3.14700       0.00000
       104185.       3.14600       0.00000
       105246.       3.14500       0.00000
       106421.       3.14400       0.00000
       107528.       3.14300       0.00000
       108659.       3.14200       0.00000
       109911.       3.00000       140.000
       111093.       3.13900       0.00000
       112403.       3.13800       0.00000
       113639.       3.13700       0.00000
       114903.       3.13500       0.00000
       116304.       3.13400       0.00000
       117628.       3.13200       0.00000
       119097.       3.13100       0.00000
       120486.       3.12900       0.00000
       121908.       3.12700       0.00000
       123486.       3.12600       0.00000
       124980.       3.12400       0.00000
       126639.       3.12200       0.00000
       128211.       3.12000       0.00000
       129822.       3.11700       0.00000
       131614.       3.11500       0.00000
       133312.       3.11300       0.00000
       135202.       3.11000       0.00000
       136994.       3.10700       0.00000
       138835.       3.10400       0.00000
       140886.       3.10100       0.00000
       142834.       3.09800       0.00000
       145006.       3.09500       0.00000
       147070.       3.09100       0.00000
       149194.       3.08700       0.00000
       151565.       3.08300       0.00000
       153821.       3.07900       0.00000
       156343.       3.07400       0.00000
       158745.       3.06900       0.00000
       161222.       3.06300       0.00000
       163995.       3.05700       0.00000
       166640.       3.05100       0.00000
       169603.       3.04400       0.00000
       172434.       3.03600       0.00000
       175361.       3.02800       0.00000
       178646.       3.01800       0.00000
       181789.       3.00800       0.00000
       185321.       2.99700       0.00000
       188706.       2.98400       0.00000
       192217.       2.97000       0.00000
       196171.       2.95400       0.00000
       199968.       2.93600       0.00000
       203914.       2.91500       0.00000
       208370.       2.89100       0.00000
       212659.       2.86200       0.00000
       217509.       2.82800       0.00000
       222186.       2.78600       0.00000
       223387.       2.77700       0.00000
       224195.       2.76700       0.00000
       225418.       2.75700       0.00000
       226241.       2.74600       0.00000
       227070.       2.73400       0.00000
       228324.       2.72200       0.00000
       229168.       2.71000       0.00000
       230446.       2.69600       0.00000
       231306.       2.68200       0.00000
       232608.       2.66800       0.00000
       233484.       2.65200       0.00000
       234811.       2.63500       0.00000
       235703.       2.61700       0.00000
       237055.       2.59800       0.00000
       237965.       2.57800       0.00000
       239344.       2.55700       0.00000
       240271.       2.53300     0.0112000
       241676.       2.50800     0.0150000
       242622.       2.48100     0.0195000
       244055.       2.45200     0.0246000
       245020.       2.42000     0.0306000
       246481.       2.38500     0.0376000
       247465.       2.34600     0.0459000
       248956.       2.30400     0.0558000
       249960.       2.25700     0.0678000
       251481.       2.20500     0.0824000
       252505.       2.14600      0.100000
       254057.       2.08000      0.123000
       255103.       2.00500      0.151000
       256157.       1.91800      0.189000
       257755.       1.81800      0.238000
       258831.       1.70200      0.306000
       260462.       1.56700      0.403000
       261561.       1.41800      0.544000
       263227.       1.27000      0.752000
       264350.       1.15800       1.03000
       266052.       1.11400       1.37000
       267198.       1.14400       1.72000
       268937.       1.24600       2.10000
       270109.       1.42700       2.49000
       271886.       1.71200       2.89000
       273084.       2.14200       3.27000
       274900.       2.76100       3.56000
       276125.       3.56000       3.62000
       277982.       4.35600       3.28000
       279234.       4.86900       2.65000
       281134.       5.02500       2.00000
       282415.       4.96400       1.48000
       284358.       4.82000       1.11000
       285668.       4.65800      0.859000
       287657.       4.50500      0.679000
       288998.       4.36700      0.549000
       291033.       4.24500      0.453000
       292406.       4.13700      0.380000
       293791.       4.04200      0.323000
       295895.       3.95700      0.278000
       297314.       3.88000      0.242000
       299469.       3.81100      0.212000
       300922.       3.74800      0.188000
       303130.       3.68900      0.168000
       304619.       3.63400      0.151000
       306881.       3.58300      0.136000
       308408.       3.53400      0.124000
       310727.       3.48600      0.113000
       312292.       3.44100      0.104000
       314670.       3.39600     0.0966000
       316276.       3.35200     0.0902000
       318715.       3.30800     0.0849000
       320362.       3.26300     0.0806000
       322865.       3.21800     0.0774000
       324555.       3.17100     0.0752000
       327124.       3.12200     0.0741000
       328859.       3.07100     0.0743000
       331497.       3.01700     0.0759000
       333280.       2.95800     0.0791000
       335989.       2.89400     0.0844000
       337820.       2.82300     0.0924000
       339671.       2.74300      0.104000
       342486.       2.65300      0.121000
       344389.       2.54800      0.144000
       347283.       2.42500      0.178000
       349239.       2.27700      0.229000
       352216.       2.09400      0.309000
       354229.       1.86800      0.441000
       357291.       1.59800      0.677000
       359362.       1.34700       1.09000
       362515.       1.24700       1.66000
       364647.       1.33400       2.28000
       367893.       1.60600       2.94000
       370090.       2.13400       3.62000
       373434.       3.05500       4.18000
       375697.       4.38100       4.22000
       379144.       5.49600       3.42000
       381477.       5.83100       2.36000
       385031.       5.70500       1.60000
       387437.       5.46700       1.13000
       391104.       5.23700      0.840000
       393587.       5.04200      0.653000
       397372.       4.87900      0.525000
       399936.       4.74400      0.434000
       407829.       4.49200      0.295000
       416040.       4.32000      0.219000
       426048.       4.19400      0.172000
       435018.       4.09900      0.140000
       444373.       4.02500      0.118000
       454139.       3.96400      0.101000
       464345.       3.91400     0.0880000
       476846.       3.87200     0.0778000
       488110.       3.83600     0.0694000
       499919.       3.80500     0.0625000
       598937.       3.67100     0.0357000
       700452.       3.61800     0.0257000
       799871.       3.59000     0.0204000
       898406.       3.57300     0.0170000
       999839.       3.56100     0.0147000
