;  Optical constants for trigonal Al2O3, ordinary ray
; 
;   taken from:
;
;   'Handbook of Optical Constants of Solids II', Ed. by Edward D. Palik,
;   Academic Press, Inc., 1991.
;   
;    Lambda (A)            n            k
;-----------------------------------------
       2066.33       1.83400       0.00000
       2101.36       1.83400       0.00000
       2137.59       1.83400       0.00000
       2175.09       1.83400       0.00000
       2213.93       1.83400       0.00000
       2254.18       1.83400       0.00000
       2295.93       1.83400       0.00000
       2339.25       1.83400       0.00000
       2384.23       1.83400       0.00000
       2430.98       1.83400       0.00000
       2479.60       1.83400       0.00000
       2530.20       1.83400       0.00000
       2582.92       1.83400       0.00000
       2637.87       1.83400       0.00000
       2695.22       1.83100       0.00000
       2755.11       1.82700       0.00000
       2817.73       1.82300       0.00000
       2883.26       1.82000       0.00000
       2951.90       1.81700       0.00000
       3023.90       1.81300       0.00000
       3099.50       1.81000       0.00000
       3178.97       1.80700       0.00000
       3262.63       1.80400       0.00000
       3350.81       1.80100       0.00000
       3443.89       1.79900       0.00000
       3542.29       1.79600       0.00000
       3646.47       1.79400       0.00000
       3756.97       1.79100       0.00000
       3874.38       1.78900       0.00000
       3999.35       1.78700       0.00000
       4132.67       1.78400       0.00000
       4275.17       1.78200       0.00000
       4427.86       1.78000       0.00000
       4591.85       1.77900       0.00000
       4768.46       1.77700       0.00000
       4959.20       1.77500       0.00000
       5165.83       1.77300       0.00000
       5390.44       1.77100       0.00000
       5635.45       1.77000       0.00000
       5903.81       1.76800       0.00000
       6199.00       1.76700       0.00000
       6525.26       1.76500       0.00000
       6887.78       1.76400       0.00000
       7292.94       1.76200       0.00000
       7748.75       1.76100       0.00000
       8265.33       1.75900       0.00000
       8855.71       1.75800       0.00000
       9536.92       1.75700       0.00000
       10331.7       1.75500       0.00000
       11270.9       1.75300       0.00000
       12398.0       1.75100       0.00000
       13775.6       1.74900       0.00000
       15497.5       1.74600       0.00000
       17711.4       1.74200       0.00000
       20663.3       1.73600       0.00000
       24796.0       1.72600       0.00000
       25636.9       1.72300       0.00000
       26311.5       1.72100       0.00000
       27022.7       1.71900       0.00000
       27773.3       1.71600       0.00000
       28566.8       1.71400       0.00000
       29407.0       1.71200       0.00000
       30298.1       1.70900       0.00000
       31245.0       1.70700       0.00000
       32252.9       1.70500       0.00000
       33328.0       1.70100       0.00000
       34477.2       1.69700       0.00000
       35708.5       1.69200       0.00000
       37031.1       1.68700       0.00000
       38455.3       1.68100       0.00000
       39993.5       1.67400       0.00000
       41659.9       1.66700       0.00000
       43471.2       1.65800       0.00000
       45447.2       1.64700       0.00000
       47611.4       1.63600       0.00000
       49991.9       1.62400       0.00000
       52623.1       1.60700       0.00000
       55546.6       1.62400    0.00200000
       58814.0       1.60000    0.00200000
       62489.9       1.57100    0.00300000
       66655.9       1.53400    0.00400000
       71417.0       1.48500    0.00500000
       76910.7       1.41900    0.00700000
       83319.9       1.32500     0.0110000
       90894.4       1.18100     0.0170000
       99983.9      0.925000     0.0340000
       100961.      0.888000     0.0370000
       102041.      0.847000     0.0410000
       103059.      0.801000     0.0450000
       104185.      0.750000     0.0510000
       105246.      0.693000     0.0580000
       106329.      0.627000     0.0670000
       107528.      0.550000     0.0810000
       108659.      0.456000      0.103000
       109911.      0.340000      0.147000
       111093.      0.213000      0.249000
       112301.      0.143000      0.393000
       113639.      0.115000      0.522000
       114903.      0.101000      0.634000
       116304.     0.0930000      0.737000
       117628.     0.0880000      0.834000
       118983.     0.0850000      0.927000
       120486.     0.0830000       1.01700
       121908.     0.0830000       1.10700
       123486.     0.0830000       1.19700
       124980.     0.0840000       1.28700
       126562.     0.0850000       1.37900
       128184.     0.0880000       1.47300
       129849.     0.0900000       1.57100
       131558.     0.0940000       1.67200
       133312.     0.0990000       1.77800
       135113.      0.104000       1.89000
       136964.      0.111000       2.01000
       138866.      0.120000       2.13800
       140822.      0.131000       2.27800
       142834.      0.145000       2.43300
       144904.      0.165000       2.60700
       147035.      0.192000       2.80700
       149230.      0.236000       3.04700
       151491.      0.317000       3.35000
       153821.      0.516000       3.76100
       156225.       1.22200       4.18100
       158705.       1.71800       3.15700
       161264.      0.852000       3.30600
       163908.      0.698000       4.00600
       166640.      0.841000       4.78900
       169464.       1.29800       5.81000
       172386.       2.63600       7.24000
       175410.       6.57000       7.32000
       178543.       7.68300       3.15000
       181789.       6.25600       1.43200
       185155.       5.20600      0.865000
       188649.       4.45500      0.635000
       192277.       3.85600      0.545000
       196047.       3.31800      0.544000
       199968.       2.77400      0.642000
       204049.       2.17000      0.930000
       208300.       1.62000       1.63500
       212732.       1.52100       2.69700
       217356.       1.98900       3.90300
       222186.       3.50100       5.06500
       227236.       6.12500       4.25500
       232521.       6.38600       2.02500
       238057.       5.68300       1.05700
       243863.       5.10200      0.699000
       249960.       4.67700      0.612000
       256369.       4.48200      0.719000
       263115.       4.58900      0.634000
       270227.       4.48500      0.378000
       277733.       4.30200      0.245000
       285668.       4.14400      0.178000
       294070.       4.01500      0.139000
       302981.       3.90800      0.113000
       312450.       3.81800     0.0950000
       322529.       3.74000     0.0820000
       333280.       3.67200     0.0710000
       344772.       3.61100     0.0620000
       357085.       3.55800     0.0550000
       370311.       3.51000     0.0490000
       384553.       3.46700     0.0440000
       399936.       3.42800     0.0400000
       416599.       3.39300     0.0360000
       434712.       3.36100     0.0330000
       454472.       3.33100     0.0300000
       476114.       3.30400     0.0270000
       499919.       3.28000     0.0250000
       526231.       3.25800     0.0230000
       555466.       3.23700     0.0210000
       588140.       3.21800     0.0190000
       624899.       3.20100     0.0170000
       666559.       3.18500     0.0160000
       714170.       3.17100     0.0140000
       769107.       3.15800     0.0130000
       833199.       3.14600     0.0120000
       908944.       3.13500     0.0110000
       999839.       3.12600    0.00900000
   1.11093e+06       3.11700    0.00800000
   1.24980e+06       3.11000    0.00700000
   1.42834e+06       3.10300    0.00600000
   1.66640e+06       3.09700    0.00500000
   1.99968e+06       3.09300    0.00400000
   2.49960e+06       3.08900    0.00400000
   3.33280e+06       3.08600    0.00300000
   4.99919e+06       3.08400    0.00200000
   9.99839e+06       3.08300    0.00100000
