;  Optical constants for trigonal Al2O3, extraordinary ray
; 
;   taken from:
;
;   'Handbook of Optical Constants of Solids II', Ed. by Edward D. Palik,
;   Academic Press, Inc., 1991.
;   
;    Lambda (A)            n            k
;-----------------------------------------
       55546.6       3.36300    0.00200000
       58814.0       3.33200    0.00300000
       62489.9       3.30400    0.00400000
       66655.9       3.27900    0.00400000
       71417.0       3.25500    0.00600000
       76910.7       3.23400    0.00800000
       83319.9       3.21400     0.0110000
       90894.4       3.19600     0.0180000
       99983.9       3.18000     0.0330000
       100961.       3.16500     0.0350000
       102041.       3.15100     0.0380000
       103059.       3.13900     0.0420000
       104185.       3.12800     0.0460000
       105246.       3.11800     0.0510000
       106329.       3.10900     0.0570000
       107528.       3.10100     0.0660000
       108659.       3.09500     0.0770000
       109911.       3.08900     0.0930000
       111093.       3.08400      0.121000
       112301.       3.08000      0.176000
       113639.       3.07700      0.288000
       114903.       3.07500      0.419000
       116304.       3.07300      0.535000
       117628.       3.07300      0.639000
       118983.       3.07300      0.734000
       120486.       3.07300      0.825000
       121908.       3.07300      0.912000
       123486.       3.07300      0.998000
       124980.       3.07300       1.08300
       126562.       3.07300       1.16700
       128184.       3.07300       1.25300
       129849.       3.07300       1.34000
       131558.       3.07300       1.43000
       133312.       3.07300       1.52300
       135113.       3.07300       1.62000
       136964.       3.07300       1.72100
       138866.       3.07300       1.83000
       140822.       3.07300       1.94600
       142834.       3.07300       2.07300
       144904.       3.07300       2.21400
       147035.       3.07300       2.37500
       149230.       3.07300       2.56800
       151491.       3.07300       2.78200
       153821.       3.07300       2.72200
       156225.       3.07300       2.95100
       158705.       3.07300       3.29800
       161264.       3.07300       3.72000
       163908.       3.07300       4.28700
       166640.       3.07300       5.12300
       169464.       3.07300       6.19800
       172386.       3.07300       4.42600
       175410.       3.07300       1.75500
       178543.       3.07300      0.949000
       181789.       3.07300      0.673000
       185155.       3.07300      0.580000
       188649.       3.07300      0.595000
       192277.       3.07300      0.738000
       196047.       3.07300       1.12100
       199968.       3.07300       1.66000
       204049.       3.07300       2.16100
       208300.       3.07300       2.62700
       212732.       3.07300       3.09100
       217356.       3.07300       3.58600
       222186.       3.07300       4.14500
       227236.       3.07300       4.81300
       232521.       3.07300       5.65400
       238057.       3.07300       6.73800
       243863.       3.07300       7.89400
       249960.       3.07300       7.16700
       256369.       3.07300       3.87400
       263115.       3.07300       1.99100
       270227.       3.07300       1.18000
       277733.       3.07300      0.782000
       285668.       3.07300      0.560000
       294070.       3.07300      0.422000
       302981.       3.07300      0.331000
       312450.       3.07300      0.267000
       322529.       3.07300      0.221000
       333280.       3.07300      0.185000
       344772.       3.07300      0.158000
       357085.       3.07300      0.136000
       370311.       3.07300      0.119000
       384553.       3.07300      0.104000
       399936.       3.07300     0.0920000
       416599.       3.07300     0.0820000
       434712.       3.07300     0.0730000
       454472.       3.07300     0.0660000
       476114.       3.07300     0.0590000
       499919.       3.07300     0.0530000
       526231.       3.07300     0.0480000
       555466.       3.07300     0.0430000
       588140.       3.07300     0.0390000
       624899.       3.07300     0.0360000
       666559.       3.07300     0.0320000
       714170.       3.07300     0.0290000
       769107.       3.07300     0.0260000
       833199.       3.07300     0.0230000
       908944.       3.07300     0.0210000
       999839.       3.07300     0.0190000
   1.11093e+06       3.07300     0.0160000
   1.24980e+06       3.07300     0.0140000
   1.42834e+06       3.07300     0.0120000
   1.66640e+06       3.07300     0.0100000
   1.99968e+06       3.07300    0.00900000
   2.49960e+06       3.07300    0.00700000
   3.33280e+06       3.07300    0.00500000
   4.99919e+06       3.07300    0.00300000
   9.99839e+06       3.07300    0.00200000
