;  Optical constants for cubic AlAs
; 
;   taken from:
;
;   'Handbook of Optical Constants of Solids II', Ed. by Edward D. Palik,
;   Academic Press, Inc., 1991.
;   
;    Lambda (A)            n            k
;-----------------------------------------
       1.23980      0.999993   1.33000e-07
       1.26873      0.999993   1.45000e-07
       1.32869      0.999992   1.73000e-07
       1.39163      0.999991   2.07000e-07
       1.45739      0.999991   2.47000e-07
       1.52628      0.999990   2.94000e-07
       1.59850      0.999988   3.50000e-07
       1.67405      0.999987   4.18000e-07
       1.75311      0.999986   4.97000e-07
       1.83620      0.999985   5.92000e-07
       1.92306      0.999983   7.05000e-07
       2.01397      0.999982   8.40000e-07
       2.10922      0.999980   9.99000e-07
       2.20880      0.999978   1.19000e-06
       2.31349      0.999975   1.41000e-06
       2.42290      0.999973   1.68000e-06
       2.53745      0.999970   2.00000e-06
       2.65766      0.999967   2.38000e-06
       2.78294      0.999964   2.83000e-06
       2.91443      0.999961   3.36000e-06
       3.05219      0.999957   3.99000e-06
       3.19701      0.999953   4.74000e-06
       3.34810      0.999948   5.63000e-06
       3.50622      0.999943   6.67000e-06
       3.67239      0.999937   7.92000e-06
       3.84553      0.999931   9.39000e-06
       4.02794      0.999925   1.11000e-05
       4.21844      0.999918   1.32000e-05
       4.41682      0.999910   1.56000e-05
       4.62612      0.999901   1.84000e-05
       4.84486      0.999893   2.18000e-05
       5.07491      0.999883   2.58000e-05
       5.31419      0.999872   3.04000e-05
       5.56463      0.999861   3.59000e-05
       5.82887      0.999850   4.22000e-05
       6.10438      0.999838   4.97000e-05
       6.39402      0.999825   5.83000e-05
       6.69438      0.999813   6.85000e-05
       7.01244      0.999802   8.03000e-05
       7.34479      0.999792   9.40000e-05
       7.51394      0.999789   0.000102000
       7.69107      0.999788   0.000110000
       7.87175      0.999796   0.000119000
       8.05588      0.999794   0.000103000
       8.24335      0.999782   9.80000e-05
       8.43401      0.999771   0.000106000
       8.63371      0.999766   0.000114000
       8.83678      0.999765   0.000122000
       9.04303      0.999772   0.000132000
       9.25224      0.999811   0.000142000
       9.47135      0.999801   2.76000e-05
       9.68594      0.999749   2.99000e-05
       9.91840      0.999716   3.23000e-05
       10.1457      0.999688   3.50000e-05
       10.6238      0.999639   4.10000e-05
       11.1293      0.999590   4.80000e-05
       11.6523      0.999539   5.62000e-05
       12.2028      0.999486   6.58000e-05
       12.7854      0.999429   7.70000e-05
       13.3902      0.999367   9.01000e-05
       14.0233      0.999299   0.000105000
       14.6861      0.999226   0.000123000
       15.3821      0.999147   0.000144000
       16.1076      0.999060   0.000168000
       16.8703      0.998970   0.000195000
       17.6685      0.998860   0.000227000
       18.5045      0.998750   0.000263000
       19.3779      0.998630   0.000308000
       20.2946      0.998500   0.000358000
       21.2549      0.998360   0.000416000
       22.2585      0.998200   0.000483000
       23.3133      0.998030   0.000559000
       24.4151      0.997850   0.000647000
       25.5682      0.997660   0.000747000
       26.7775      0.997450   0.000863000
       28.0434      0.997220   0.000995000
       29.3722      0.996990    0.00114000
       30.7643      0.996730    0.00132000
       32.2193      0.996460    0.00151000
       33.7361      0.996170    0.00171000
       35.3320      0.995850    0.00196000
       37.0090      0.995520    0.00223000
       38.7559      0.995160    0.00255000
       40.5827      0.994790    0.00292000
       42.5026      0.994410    0.00334000
       44.5171      0.994040    0.00381000
       46.6266      0.993680    0.00433000
       48.8302      0.993300    0.00487000
       51.1258      0.992890    0.00548000
       53.5551      0.992500    0.00616000
       56.0742      0.992100    0.00695000
       58.7305      0.991820    0.00783000
       61.5285      0.991560    0.00865000
       64.4387      0.991260    0.00958000
       67.4905      0.991060     0.0106000
       70.6439      0.991010     0.0117000
       74.0179      0.990930     0.0126000
       77.4875      0.990870     0.0137000
       81.1919      0.990860     0.0148000
       83.0409      0.990920     0.0154000
       85.0343      0.991020     0.0160000
       87.0035      0.991120     0.0165000
       89.0022      0.991190     0.0171000
       91.0948      0.991280     0.0176000
       93.2180      0.991390     0.0182000
       95.4426      0.991530     0.0188000
       97.6220      0.991760     0.0194000
       99.9033      0.992120     0.0200000
       102.294      0.992480     0.0204000
       104.624      0.992730     0.0207000
       107.064      0.992940     0.0210000
       109.620      0.993120     0.0214000
       112.199      0.993300     0.0217000
       114.796      0.993490     0.0220000
       117.517      0.993680     0.0224000
       120.252      0.993890     0.0227000
       122.996      0.994110     0.0230000
       125.906      0.994350     0.0233000
       128.851      0.994610     0.0236000
       131.852      0.994840     0.0238000
       134.937      0.995060     0.0240000
       138.093      0.995320     0.0242000
       141.320      0.995670     0.0244000
       144.617      0.996270     0.0244000
       148.000      0.996640     0.0241000
       151.472      0.996860     0.0238000
       154.994      0.997040     0.0235000
       158.623      0.997260     0.0232000
       162.341      0.997620     0.0229000
       166.126      0.998470     0.0226000
       170.022       1.00073     0.0223000
       173.983      0.998030     0.0143000
       178.055      0.994930     0.0143000
       182.216      0.992920     0.0142000
       186.464      0.991250     0.0141000
       190.827      0.989600     0.0139000
       195.275      0.987990     0.0137000
       199.839      0.986350     0.0135000
       204.520      0.984690     0.0132000
       209.284      0.982920     0.0130000
       214.202      0.981030     0.0127000
       219.201      0.979030     0.0125000
       224.317      0.976920     0.0123000
       229.550      0.974700     0.0121000
       234.944      0.972360     0.0120000
       240.411      0.969770     0.0118000
       2213.93       1.36000       2.75000
       2254.18       1.36000       2.89000
       2295.93       1.36000       3.12000
       2339.25       1.53000       3.40000
       2384.23       1.77000       3.65000
       2430.98       2.16000       3.86000
       2479.60       2.48000       3.95000
       2530.20       2.92000       4.04000
       2582.92       3.48000       4.02000
       2637.87       3.96000       3.70000
       2695.22       4.22000       3.09000
       2755.11       4.18000       2.63000
       2817.73       4.04000       2.52000
       2883.26       4.01000       2.52000
       2951.90       4.11000       2.63000
       3023.90       4.47000       2.68000
       3099.50       4.92000       2.49000
       3178.97       5.35000       2.15000
       3262.63       5.39000       1.30000
       3350.81       4.99000      0.752000
       3443.89       4.72000      0.519000
       3542.29       4.48000      0.334000
       3646.47       4.30000      0.233000
       3756.97       4.13000      0.139000
       3874.38       3.93000      0.115000
       3935.87       0.00000      0.119000
       3973.72       0.00000      0.115000
       3999.35       0.00000      0.113000
       4031.87       0.00000      0.110000
       4064.92       0.00000      0.106000
       4098.51       0.00000     0.0998000
       4132.67       0.00000     0.0638000
       4167.40       0.00000     0.0315000
       4202.71       0.00000     0.0189000
       4238.63       0.00000     0.0118000
       4275.17       0.00000     0.0105000
       4312.35       0.00000     0.0103000
       4350.18       0.00000    0.00993000
       4427.86       3.70300    0.00161000
       4591.85       3.57000    0.00156000
       4768.46       3.47200    0.00153000
       4959.20       3.39400    0.00125000
       5165.83       3.32900   0.000682000
       5390.44       3.27300   0.000275000
       5635.45       3.22500   4.04000e-05
       5903.81       3.18300   2.30000e-06
       6199.00       3.14500       0.00000
       6525.26       3.11200       0.00000
       6887.78       3.08200       0.00000
       7292.94       3.05600       0.00000
       7748.75       3.03200       0.00000
       8265.33       3.01000       0.00000
       8855.71       2.99000       0.00000
       9536.92       2.97300       0.00000
       10331.7       2.95700       0.00000
       11270.9       2.94300       0.00000
       12398.0       2.93000       0.00000
       13775.6       2.91900       0.00000
       15497.5       2.90900       0.00000
       17711.4       2.90100       0.00000
       20663.3       2.89400       0.00000
       24796.0       2.88800       0.00000
       49991.9       2.85000       0.00000
       66655.9       2.84000       0.00000
       99983.9       2.81000       0.00000
       111093.       2.80000       0.00000
       124992.       2.78000       0.00000
       142851.       2.74000    0.00200000
       166662.       2.67000    0.00430000
       200000.       2.47000     0.0140000
       222226.       2.18000     0.0400000
       232564.       1.90000     0.0770000
       238103.       1.67000      0.120000
       240972.       1.50000      0.160000
       243911.       1.27000      0.230000
       246923.      0.950000      0.380000
       250010.      0.600000      0.780000
       253175.      0.460000       1.33000
       256422.      0.450000       1.87000
       259753.      0.510000       2.44000
       263171.      0.630000       3.12000
       266681.      0.900000       4.00000
       270286.       1.57000       5.25000
       273989.       3.78000       6.90000
       276371.       6.87000       6.25000
       277795.       7.84000       4.57000
       281709.       6.99000       1.59000
       285734.       5.95000      0.750000
       294140.       4.90000      0.290000
       302981.       4.40000      0.150000
       312450.       4.11000     0.0950000
       322529.       3.91000     0.0650000
       333280.       3.78000     0.0470000
       399936.       3.44000     0.0150000
       499919.       3.31000    0.00730000
