;  Optical constants for Au
; 
;   taken from:
;
;   Hagemann et al., in
;
;   'Handbook of Optical Constants of Solids', Ed. by Edward D. Palik,
;   Academic Press, Inc., 1985.
;   
;    Lambda (A)            n            k
;-----------------------------------------
   140.89    .889	.0554
   141.69    .888	.0558
   142.51    .887	.0576
   144.16    .886	.0613
   145.86    .887	.0648
   146.72    .888	.0654
   147.60    .888	.0633
   148.48    .885	.0637
   149.37    .884	.0653
   151.20    .881	.0682
   154.98    .878	.0752
   158.95    .875	.0818
   163.13    .873	.0871
   167.54    .869	.0927
   172.19    .862	.0997
   177.11    .857	.112
   182.32    .855	.124
   187.85    .856	.136
   193.72    .857	.147
   199.97    .859	.156
   206.63    .863	.162
   213.76    .861	.166
   221.39    .856	.171
   229.59    .848	.180
   238.42    .839	.190
   247.96    .828	.204
   253.02    .821	.213
   258.29    .814	.225
   263.79    .809	.238
   269.52    .805	.254
   275.51    .805	.270
   281.77    .807	.282
   288.33    .807	.292
   295.19    .804	.303
   302.39    .799	.317
   309.95    .795	.334
   317.90    .793	.353
   326.26    .791	.371
   335.08    .788	.391
   344.39    .786	.414
   354.23    .783	.439
   364.65    .779	.473
   375.70    .781	.515
   387.44    .805	.570
   399.94    .851	.596
   406.49    .870	.601
   413.27    .887	.603
   420.27    .900	.601
   427.52    .905	.599
   442.79    .901	.607
   459.19    .895	.635
   476.8     .896	.679
