;  Optical constants for Au.
; 
;   taken from:
;
;   D. L. Windt, Webster C. Cash, Jr., M. Scott, P. Arendt, B. Newnam,
;   R. F. Fisher, and A. B. Swartzlander, 'Optical Constants for thin films
;   of Ti, Zr, Nb, Mo, Ru, Rh, Pd, Ag, Hf, Ta, W, Re, Ir, Os, Pt, and Au
;   from 24 to 1216 A', App. Opt., 27, 246, 1988.
;   
;    Lambda (A)            n            k
;-----------------------------------------
   23.620      .99512	.00412
   31.600      .99582	.0042
   44.700      .99310	.00954
   67.600      .9856	.0084	
   114.00      .930	.0217	
   135.50      .900	.0502	
   171.40      .865	.089
   243.03      .848	.243
   256.32      .836	.200
   303.78      .815	.273
   327.00      .798	.293
   356.80      .790	.347
   379.31      .776	.461
   405.85      .889	.568
   447.81      .846	.482
   460.73      .826	.531
   489.50      .808	.538
   539.09      .858	.749
   584.33      1.04	.866
   616.29      1.26	.880
   671.39      1.095	.711
   718.48      1.02	.692
   735.90      1.12	.733
   743.72      1.11	.768
   834.46      1.05	.799
   878.00      1.08	.787
   919.78      1.12	.830
   932.05      1.11	.812
   988.78      1.17	.796
   1025.8      1.12	.762
   1048.2      1.13	.805
   1066.7      1.22	.809
   1085.7      1.22	.806
   1135.0      1.16	.788
   1200.7      1.18	.844
   1215.7      1.25	.870
