;  Optical constants for tetragonal barium titanate, ordinary ray
;
;   taken from:
;
;   'Handbook of Optical Constants of Solids II', Ed. by Edward D. Palik,
;   Academic Press, Inc., 1991.
;   
;    Lambda (A)            n            k
;-----------------------------------------
       366.805      0.761000      0.326000
       381.477      0.753000      0.370000
       396.102      0.745000      0.420000
       413.267      0.782000      0.450000
       421.701      0.786000      0.444000
       441.210      0.741000      0.449000
       452.482      0.720000      0.494000
       466.090      0.700000      0.548000
       482.412      0.679000      0.667000
       503.984      0.720000      0.770000
       516.583      0.741000      0.839000
       541.397      0.872000      0.956000
       555.964      0.975000       1.00200
       571.336       1.09000       1.02000
       593.206       1.26000      0.914000
       642.383       1.32000      0.790000
       677.486       1.29000      0.741000
       716.647       1.32000      0.765000
       760.614       1.36000      0.763000
       810.327       1.39000      0.723000
       879.291       1.36000      0.672000
       925.224       1.32000      0.654000
       983.968       1.21000      0.751000
       1059.66       1.39000      0.985000
       1116.94       1.48000      0.938000
       1215.49       1.65000       1.05000
       1311.96       1.84000      0.839000
       1458.59       1.77000      0.760000
       1614.32       1.82000      0.704000
       1836.74       1.78000      0.617000
       1958.61       1.63000      0.720000
       2156.17       1.65000      0.844000
       2361.52       1.54000       1.28000
       2440.55       1.72000       1.30000
       2514.81       1.91000       1.51000
       2706.99       2.40000       1.40000
       3099.50       3.10000       0.00000
       3115.08       2.81000       1.07000
       3237.08       2.98000      0.860000
       3415.43       3.20000      0.620000
       3542.29       2.82000       0.00000
       4132.67       2.64000   1.38000e-05
       4219.88       2.64500   5.84000e-06
       4500.18       2.57800   1.86000e-06
       4750.19       2.53400   1.25000e-06
       4959.20       2.51000       0.00000
       4999.19       2.50000   1.03000e-06
       5248.94       2.47800   9.60000e-07
       5500.44       2.45900   8.80000e-07
       5750.46       2.44200   7.80000e-07
       6000.97       2.43000   7.20000e-07
       6199.00       2.42000       0.00000
       6248.99       2.41600   7.00000e-07
       6501.31       2.40500   6.20000e-07
       6749.05       2.39600   3.80000e-07
       6899.28       2.39000   2.80000e-07
       7250.29       2.37900       0.00000
       7500.30       2.37200       0.00000
       7748.75       2.36600       0.00000
       7998.71       2.36100       0.00000
       8248.84       2.35600       0.00000
       8265.33       2.36000       0.00000
       8497.60       2.35200       0.00000
       8749.47       2.34800       0.00000
       8997.10       2.34400       0.00000
       9500.38       2.33800       0.00000
       9998.39       2.33200       0.00000
       10497.9       2.32800       0.00000
       11000.9       2.32400       0.00000
       11500.9       2.32000       0.00000
       12001.9       2.31700       0.00000
       12398.0       2.32000       0.00000
       12499.2       2.31400       0.00000
       12999.9       2.31200       0.00000
       13499.6       2.31000       0.00000
       13999.5       2.30800       0.00000
       14498.9       2.30700       0.00000
       14998.8       2.30500       0.00000
       15499.4       2.30400       0.00000
       15999.5       2.30300       0.00000
       16499.9       2.30100       0.00000
       16530.7       2.31000       0.00000
       16999.9       2.30000       0.00000
       17498.9       2.30000       0.00000
       17999.4       2.29900       0.00000
       18499.0       2.29800       0.00000
       18997.9       2.29700       0.00000
       19499.8       2.29700       0.00000
       20000.0       2.29600       0.00000
       24796.0       2.30000       0.00000
       24996.0       2.27000     0.0248000
       30298.1       2.25000     0.0297000
       35708.5       2.23000     0.0346000
       39993.5       2.22000     0.0383000
       45447.2       2.19000     0.0428000
       49991.9       2.16000     0.0462000
       52623.1       2.15000     0.0482000
       55546.6       2.13000     0.0502000
       58814.0       2.10000     0.0523000
       62489.9       2.08000     0.0545000
       66655.9       2.04000     0.0567000
       71417.0       2.00000     0.0588000
       76910.7       1.95000     0.0606000
       83319.9       1.88000     0.0618000
       90894.4       1.78000     0.0615000
       99983.9       1.65000     0.0581000
       102041.       1.61000     0.0568000
       103059.       1.60000     0.0560000
       104185.       1.58000     0.0551000
       105246.       1.56000     0.0541000
       106879.       1.45000     0.0473000
       107528.       1.52000     0.0518000
       108659.       1.50000     0.0505000
       109911.       1.47000     0.0490000
       111093.       1.54000     0.0530000
       112301.       1.42000     0.0454000
       113639.       1.40000     0.0434000
       114903.       1.37000     0.0410000
       116304.       1.34000     0.0384000
       117628.       1.30000     0.0355000
       118983.       1.27000     0.0322000
       120486.       1.23000     0.0284000
       121908.       1.20000     0.0241000
       123486.       1.15000     0.0192000
       124980.       1.11000     0.0136000
       126510.       1.06000    0.00692000
       128211.       1.01000   0.000918000
       129822.      0.946000     0.0104000
       131614.      0.880000     0.0220000
       133312.      0.807000     0.0368000
       135054.      0.723000     0.0565000
       136994.      0.625000     0.0846000
       138835.      0.508000      0.130000
       140886.      0.372000      0.215000
       142834.      0.262000      0.364000
       144836.      0.214000      0.523000
       147070.      0.197000      0.662000
       149194.      0.191000      0.785000
       151565.      0.192000      0.898000
       153821.      0.196000       1.00000
       156146.      0.202000       1.11000
       158745.      0.210000       1.20000
       161222.      0.220000       1.30000
       163995.      0.232000       1.40000
       166640.      0.246000       1.50000
       169372.      0.262000       1.59000
       172434.      0.281000       1.69000
       175361.      0.304000       1.79000
       178646.      0.331000       1.89000
       181789.      0.366000       2.01000
       185045.      0.410000       2.12000
       188706.      0.471000       2.26000
       192217.      0.561000       2.40000
       196171.      0.709000       2.58000
       199968.      0.994000       2.76000
       203914.       1.63000       2.81000
       208370.       2.32000       1.80000
       212659.       1.35000      0.690000
       217509.      0.165000       1.26000
       222186.     0.0856000       1.85000
       227070.      0.111000       2.17000
       232608.      0.148000       2.40000
       237965.      0.185000       2.60000
       244055.      0.220000       2.76000
       249960.      0.254000       2.92000
       256157.      0.287000       3.07000
       263227.      0.320000       3.22000
       270109.      0.354000       3.37000
       277982.      0.389000       3.52000
       285668.      0.425000       3.68000
       293791.      0.464000       3.84000
       303130.      0.507000       4.01000
       312292.      0.563000       4.20000
       322865.      0.700000       4.41000
       333280.      0.691000       4.41000
       344389.      0.688000       4.65000
       357291.      0.736000       4.88000
       370090.      0.793000       5.11000
       385031.      0.855000       5.35000
       399936.      0.922000       5.60000
       416040.      0.993000       5.87000
       435018.       1.07000       6.18000
       454139.       1.14000       6.52000
       476846.       1.19000       6.92000
       499919.       1.19000       7.46000
       512314.       1.14000       7.86000
       525339.       1.00000       8.57000
       536710.      0.880000       9.96000
       543772.       1.33000       11.7000
       546167.       2.57000       13.1000
       548584.       5.61000       13.5000
       553482.       7.82000       10.8000
       555964.       7.29000       8.41000
       560996.       5.41000       6.95000
       568716.       4.35000       6.84000
       587583.       3.28000       7.32000
       604780.       3.07000       7.70000
       626162.       3.04000       8.03000
       666559.       3.17000       8.63000
       712529.       3.44000       9.22000
       770062.       3.81000       9.84000
       832081.       4.28000       10.5000
       911618.       4.87000       11.2000
       999839.       5.59000       12.0000
   1.10696e+06       6.48000       12.8000
   1.24980e+06       7.59000       13.8000
   1.42834e+06       9.00000       14.8000
   1.66640e+06       10.8000       15.9000
   1.99968e+06       13.2000       17.0000
   2.49960e+06       16.4000       18.1000
   3.33280e+06       20.9000       19.1000
   4.99919e+06       27.7000       19.0000
   9.99839e+06       37.8000       15.0000
