;  Optical constants for cubic CaF2
; 
;   taken from:
;
;   'Handbook of Optical Constants of Solids II', Ed. by Edward D. Palik,
;   Academic Press, Inc., 1991.
;   
;    Lambda (A)            n            k
;-----------------------------------------
       299.987      0.814000      0.148000
       299.987      0.820000      0.180000
       399.982      0.917000      0.284000
       499.978       1.10800      0.433000
       599.972       1.07400      0.335000
       599.972       1.08000      0.340000
       699.969      0.908000      0.353000
       799.964       1.16900      0.753000
       899.958       1.63000      0.675000
       899.958       1.85000      0.650000
       926.960       1.64000      0.768000
       977.953       1.78000      0.650000
       1014.96       1.77500      0.540000
       1025.95       1.74200      0.517000
       1034.95       1.73200      0.473000
       1046.95       1.72500      0.395000
       1066.95       1.61500      0.344000
       1089.95       1.53300      0.600000
       1099.95       1.57000      0.785000
       1115.95       1.77500      0.830000
       1145.95       2.00000      0.631000
       1161.95       2.02700      0.490000
       1174.94       1.99600      0.390000
       1189.94       1.98300      0.290000
       1199.95       2.05000      0.100000
       1253.94       1.88800       0.00000
       1275.95       1.85500       0.00000
       1332.93       1.80300       0.00000
       1432.93       1.71100       0.00000
       1604.92       1.60700       0.00000
       1604.92       1.55470       0.00000
       1611.93       1.55090       0.00000
       1644.93       1.54380       0.00000
       1670.91       1.53850       0.00000
       1724.92       1.52890       0.00000
       1763.91       1.52270       0.00000
       1818.93       1.51520       0.00000
       1849.92       1.51024       0.00000
       1859.91       1.50930       0.00000
       1929.92       1.50150       0.00000
       1969.91       1.49755       0.00000
       1979.91       1.49643       0.00000
       1999.90       1.49547       0.00000
       2039.92       1.49190       0.00000
       2079.89       1.48907       0.00000
       2109.90       1.48705       0.00000
       2139.91       1.48480       0.00000
       2189.92       1.48167       0.00000
       2199.90       1.48110       0.00000
       2399.88       1.47120       0.00000
       2599.87       1.46391       0.00000
       2799.85       1.45836       0.00000
       2999.83       1.45402       0.00000
       3199.81       1.45056       0.00000
       3399.88       1.44775       0.00000
       3599.88       1.44548       0.00000
       3799.80       1.44349       0.00000
       3999.87       1.44185       0.00000
       4199.86       1.44045       0.00000
       4399.73       1.43924       0.00000
       4599.86       1.43820       0.00000
       4799.85       1.43728       0.00000
       4999.80       1.43647       0.00000
       5199.85       1.43575       0.00000
       5399.83       1.43512       0.00000
       5599.82       1.43454       0.00000
       5799.69       1.43403       0.00000
       5999.81       1.43356       0.00000
       6199.62       1.43313       0.00000
       6399.63       1.43275       0.00000
       6599.60       1.43239       0.00000
       6799.76       1.43206       0.00000
       6999.77       1.43176       0.00000
       7199.77       1.43148       0.00000
       7399.58       1.43121       0.00000
       7599.61       1.43097       0.00000
       7799.45       1.43074       0.00000
       7999.74       1.43052       0.00000
       8199.74       1.43032       0.00000
       8399.73       1.43013       0.00000
       8599.57       1.42995       0.00000
       8799.77       1.42977       0.00000
       8999.71       1.42961       0.00000
       9199.38       1.42945       0.00000
       9399.54       1.42930       0.00000
       9599.69       1.42915       0.00000
       9799.24       1.42901       0.00000
       9999.19       1.42888       0.00000
       11999.6       1.42771       0.00000
       13999.5       1.42672       0.00000
       15999.5       1.42579       0.00000
       17999.4       1.42484       0.00000
       20000.0       1.42385       0.00000
       21997.9       1.42280       0.00000
       23999.2       1.42168       0.00000
       25997.1       1.42049       0.00000
       27999.1       1.41921       0.00000
       29997.6       1.41785       0.00000
       31994.8       1.41639       0.00000
       33995.1       1.41484       0.00000
       35998.8       1.41320       0.00000
       37995.7       1.41147       0.00000
       39993.5       1.40963       0.00000
       41998.6       1.40770       0.00000
       43995.7       1.40567       0.00000
       46003.7       1.40354       0.00000
       47998.4       1.40130       0.00000
       49991.9       1.39895       0.00000
       52005.0       1.39650       0.00000
       53998.3       1.39394       0.00000
       55998.2       1.39127       0.00000
       57988.8       1.38849       0.00000
       60009.7       1.38559       0.00000
       61990.0       1.38258       0.00000
       64006.2       1.37945       0.00000
       65981.9       1.37620       0.00000
       68008.8       1.37282       0.00000
       70005.6       1.36932       0.00000
       71997.7       1.36569       0.00000
       73973.7       1.36193       0.00000
       76014.7       1.35804       0.00000
       77974.8       1.35401       0.00000
       79987.1       1.34983       0.00000
       81997.4       1.34552       0.00000
       83997.3       1.34106       0.00000
       85977.8       1.33645       0.00000
       87991.5       1.33169       0.00000
       89971.0       1.32677       0.00000
       91973.3       1.32168       0.00000
       93995.5       1.31643       0.00000
       95959.8       1.31101       0.00000
       98007.9       1.30541       0.00000
       99983.9       1.30600    0.00290000
       105246.       1.28900    0.00350000
       111093.       1.26900    0.00400000
       117628.       1.24700    0.00500000
       124980.       1.21800    0.00700000
       133312.       1.18100    0.00900000
       142834.       1.13300     0.0120000
       153821.       1.06700     0.0170000
       166640.      0.971000     0.0270000
       173885.      0.906000     0.0350000
       181789.      0.821000     0.0470000
       190445.      0.707000     0.0680000
       199968.      0.539000      0.115000
       210492.      0.291000      0.280000
       222186.      0.182000      0.609000
       235256.      0.174000      0.902000
       249960.      0.196000       1.18700
       266624.      0.241000       1.48800
       285668.      0.298000       1.81800
       307643.      0.317000       2.23500
       333280.      0.276000       3.01100
       344389.      0.280000       3.56500
       357291.      0.346000       4.43000
       370090.      0.639000       6.07100
       385031.       3.90900       11.1460
       387437.       8.09300       12.1370
       388652.       10.8760       10.7500
       391104.       12.3420       8.01000
       393587.       11.4630       3.83100
       397372.       9.86400       2.11500
       399936.       8.67300       1.35200
       416040.       5.92700      0.389000
       435018.       4.86700      0.206000
       454139.       4.28300      0.136000
       476846.       3.90700      0.100000
       499919.       3.64100     0.0790000
       555964.       3.28900     0.0530000
       626162.       3.06600     0.0390000
       712529.       2.91400     0.0290000
       832081.       2.80500     0.0220000
       999839.       2.72600     0.0170000
       999839.       2.72900       0.00000
   1.99968e+06       2.61000     0.0340000
   2.93791e+06       2.57000       0.00000
   3.13873e+06       2.55000       0.00000
   3.39671e+06       2.55000       0.00000
   3.61458e+06       2.49000       0.00000
   3.94841e+06       2.47000       0.00000
   4.52482e+06       2.55000       0.00000
   5.79346e+06       2.54000       0.00000
