; Optical constants for Cr created by:
; 
; F. Delmotte, J. Meyer-Ilse, F. Salmassi, R. Soufli, C. Burcklen, J. Rebellato, A. Jerome, I. Vickridge, E. Briand, and E. Gullikson
; "Soft x-ray optical constants of sputtered Chromium thin films with improved accuracy in the L and M absorption edge regions"ù, Journal of Applied Physics 124, 035107 (2018)
;
;   The above publication determined new experimental values of optical constants for Cr (density=7.19g/cm3) in the region 25-813 eV (495 A - 15.25 A)
;   The rest of the spectrum contains values from calculations and the literature (see publication for more details)
;
;   In the range 539 A - 29519 A: we use optical constants for polycrystalline Cr taken from:
;   'Handbook of Optical Constants of Solids II', Ed. by Edward D. Palik,
;   Academic Press, Inc., 1991.
;   
;    Lambda (A)            n            k
;-----------------------------------------
0.02864	0.999999992665	2.654E-13
0.03061	0.999999991618	3.486E-13
0.03273	0.999999990421	4.587E-13
0.03498	0.999999989050	6.025E-13
0.0374	0.999999987490	7.917E-13
0.03998	0.999999985700	1.041E-12
0.04274	0.999999983660	1.369E-12
0.04569	0.999999981330	1.801E-12
0.04884	0.999999978660	2.367E-12
0.05221	0.999999975620	3.113E-12
0.05581	0.999999972130	4.094E-12
0.05966	0.999999968150	5.383E-12
0.06378	0.999999963610	7.079E-12
0.06818	0.999999958410	9.308E-12
0.07288	0.999999952470	1.224E-11
0.07791	0.999999945680	1.61E-11
0.08329	0.999999937920	2.117E-11
0.08903	0.999999929050	2.783E-11
0.09518	0.999999918910	3.661E-11
0.10174	0.999999907330	4.814E-11
0.10876	0.999999894100	6.332E-11
0.11627	0.999999878900	8.327E-11
0.12429	0.999999861600	1.095E-10
0.13287	0.999999841900	1.44E-10
0.14204	0.999999819300	1.894E-10
0.15184	0.999999793400	2.492E-10
0.16231	0.999999763900	3.264E-10
0.17351	0.999999730100	4.27E-10
0.18549	0.999999691500	5.585E-10
0.19828	0.999999647300	7.305E-10
0.21197	0.999999596900	9.556E-10
0.22659	0.999999539100	1.25E-9
0.24223	0.999999473100	1.635E-9
0.25894	0.999999397700	2.139E-9
0.27681	0.999999311300	2.798E-9
0.29591	0.999999212600	3.661E-9
0.31632	0.999999099700	4.789E-9
0.33815	0.999998971000	6.266E-9
0.36148	0.999998823000	8.198E-9
0.38642	0.999998654000	1.072E-8
0.41309	0.999998461000	1.403E-8
0.44159	0.999998240000	1.836E-8
0.47206	0.999997987000	2.398E-8
0.50463	0.999997698000	3.104E-8
0.53945	0.999997367000	4.014E-8
0.57667	0.999996989000	5.19E-8
0.61646	0.999996556000	6.713E-8
0.659	0.999996061000	8.682E-8
0.70447	0.999995495000	1.123E-7
0.75308	0.999994849000	1.453E-7
0.77269	0.999994575000	1.607E-7
0.78519	0.999994398000	1.71E-7
0.79789	0.999994214000	1.819E-7
0.81079	0.999994025000	1.935E-7
0.8239	0.999993829000	2.058E-7
0.83723	0.999993627000	2.189E-7
0.85077	0.999993419000	2.329E-7
0.86453	0.999993203000	2.477E-7
0.87852	0.999992981000	2.634E-7
0.89272	0.999992752000	2.801E-7
0.90717	0.999992515000	2.979E-7
0.92184	0.999992271000	3.167E-7
0.93675	0.999992019000	3.367E-7
0.95189	0.999991759000	3.58E-7
0.9673	0.999991490000	3.806E-7
0.98294	0.999991213000	4.046E-7
0.99884	0.999990928000	4.3E-7
1.01499	0.999990633000	4.571E-7
1.03141	0.999990328000	4.858E-7
1.04809	0.999990015000	5.162E-7
1.06505	0.999989690000	5.486E-7
1.08227	0.999989360000	5.829E-7
1.09977	0.999989010000	6.193E-7
1.11756	0.999988660000	6.579E-7
1.13564	0.999988290000	6.989E-7
1.15401	0.999987920000	7.423E-7
1.17267	0.999987530000	7.884E-7
1.19164	0.999987130000	8.373E-7
1.21091	0.999986710000	8.891E-7
1.2305	0.999986290000	9.441E-7
1.2504	0.999985850000	1.002E-6
1.27063	0.999985400000	1.064E-6
1.29118	0.999984940000	1.13E-6
1.31206	0.999984460000	1.199E-6
1.33328	0.999983970000	1.272E-6
1.35485	0.999983460000	1.35E-6
1.37676	0.999982940000	1.432E-6
1.39903	0.999982410000	1.52E-6
1.42166	0.999981860000	1.612E-6
1.44465	0.999981300000	1.71E-6
1.46802	0.999980720000	1.813E-6
1.49176	0.999980130000	1.923E-6
1.51589	0.999979520000	2.039E-6
1.54041	0.999978900000	2.161E-6
1.56532	0.999978260000	2.291E-6
1.59064	0.999977610000	2.428E-6
1.61637	0.999976940000	2.573E-6
1.64251	0.999976270000	2.726E-6
1.66908	0.999975570000	2.888E-6
1.69607	0.999974870000	3.059E-6
1.72351	0.999974160000	3.239E-6
1.75138	0.999973440000	3.43E-6
1.77971	0.999972720000	3.631E-6
1.8085	0.999972000000	3.843E-6
1.83774	0.999971280000	4.067E-6
1.86747	0.999970570000	4.303E-6
1.89767	0.999969900000	4.552E-6
1.92837	0.999969270000	4.815E-6
1.95956	0.999968710000	5.091E-6
1.99125	0.999968310000	5.383E-6
2.02346	0.999968250000	5.689E-6
2.05619	0.999969400000	6.012E-6
2.0701	0.999979920000	6.153E-6
2.07016	0.999979870000	7.471E-7
2.08945	0.999967980000	7.73E-7
2.12324	0.999965250000	8.2E-7
2.15758	0.999963310000	8.698E-7
2.19248	0.999961570000	9.227E-7
2.22794	0.999959910000	9.79E-7
2.26398	0.999958280000	1.039E-6
2.3006	0.999956640000	1.102E-6
2.33781	0.999954980000	1.17E-6
2.37562	0.999953300000	1.241E-6
2.41404	0.999951590000	1.317E-6
2.45309	0.999949830000	1.398E-6
2.49276	0.999948030000	1.484E-6
2.53308	0.999946170000	1.575E-6
2.57405	0.999944270000	1.672E-6
2.61568	0.999942310000	1.775E-6
2.65799	0.999940290000	1.884E-6
2.70099	0.999938220000	2E-6
2.74467	0.999936070000	2.123E-6
2.78906	0.999933860000	2.255E-6
2.83417	0.999931580000	2.394E-6
2.88002	0.999929230000	2.542E-6
2.9266	0.999926800000	2.699E-6
2.97393	0.999924290000	2.866E-6
3.02203	0.999921710000	3.043E-6
3.07091	0.999919030000	3.232E-6
3.12058	0.999916270000	3.432E-6
3.17106	0.999913420000	3.644E-6
3.22234	0.999910480000	3.87E-6
3.27446	0.999907440000	4.11E-6
3.32743	0.999904300000	4.365E-6
3.38125	0.999901060000	4.636E-6
3.43593	0.999897700000	4.924E-6
3.49151	0.999894200000	5.229E-6
3.54798	0.999890700000	5.554E-6
3.60537	0.999887000000	5.899E-6
3.66367	0.999883200000	6.265E-6
3.72294	0.999879200000	6.654E-6
3.78315	0.999875100000	7.067E-6
3.84434	0.999870900000	7.506E-6
3.90652	0.999866600000	7.972E-6
3.9697	0.999862100000	8.467E-6
4.03391	0.999857400000	8.993E-6
4.09915	0.999852600000	9.551E-6
4.16546	0.999847700000	1.014E-5
4.23283	0.999842500000	1.077E-5
4.30129	0.999837200000	1.144E-5
4.37086	0.999831800000	1.215E-5
4.44155	0.999826100000	1.29E-5
4.51339	0.999820300000	1.37E-5
4.5864	0.999814200000	1.455E-5
4.66059	0.999808000000	1.545E-5
4.73596	0.999801600000	1.641E-5
4.81257	0.999794900000	1.743E-5
4.89039	0.999788000000	1.85E-5
4.96951	0.999780900000	1.965E-5
5.04988	0.999773600000	2.086E-5
5.13156	0.999766000000	2.215E-5
5.21455	0.999758200000	2.351E-5
5.2989	0.999750100000	2.496E-5
5.3846	0.999741800000	2.65E-5
5.47169	0.999733100000	2.813E-5
5.5602	0.999724200000	2.987E-5
5.65013	0.999715100000	3.17E-5
5.74152	0.999705600000	3.365E-5
5.83439	0.999695800000	3.571E-5
5.92874	0.999685700000	3.79E-5
6.02465	0.999675200000	4.022E-5
6.12207	0.999664500000	4.268E-5
6.22111	0.999653400000	4.526E-5
6.32173	0.999641900000	4.802E-5
6.42399	0.999630000000	5.094E-5
6.52789	0.999617800000	5.403E-5
6.63347	0.999605200000	5.732E-5
6.74076	0.999592200000	6.081E-5
6.84977	0.999578800000	6.451E-5
6.96056	0.999565000000	6.843E-5
7.07313	0.999550700000	7.258E-5
7.18753	0.999536100000	7.697E-5
7.3038	0.999520900000	8.158E-5
7.42194	0.999505300000	8.646E-5
7.54199	0.999489300000	9.163E-5
7.66394	0.999472700000	9.712E-5
7.7879	0.999455600000	1.029E-4
7.91387	0.999438100000	1.091E-4
8.04189	0.999420000000	1.156E-4
8.17196	0.999401400000	1.225E-4
8.30414	0.999382400000	1.299E-4
8.43843	0.999362800000	1.375E-4
8.57494	0.999342600000	1.455E-4
8.71361	0.999321800000	1.539E-4
8.85456	0.999300300000	1.629E-4
8.99779	0.999278300000	1.723E-4
9.14331	0.999255600000	1.823E-4
9.29117	0.999232300000	1.929E-4
9.44145	0.999208300000	2.041E-4
9.59415	0.999183800000	2.16E-4
9.74933	0.999158600000	2.285E-4
9.90709	0.999132700000	2.418E-4
10.06733	0.999106300000	2.557E-4
10.23014	0.999079100000	2.703E-4
10.3956	0.999051200000	2.858E-4
10.56371	0.999022600000	3.022E-4
10.73456	0.998993000000	3.196E-4
10.90824	0.998963000000	3.379E-4
11.08467	0.998933000000	3.573E-4
11.26392	0.998901000000	3.777E-4
11.4461	0.998870000000	3.994E-4
11.63122	0.998837000000	4.223E-4
11.81939	0.998804000000	4.465E-4
12.0106	0.998770000000	4.72E-4
12.20485	0.998736000000	4.987E-4
12.4022	0.998700000000	5.275E-4
12.6028	0.998665000000	5.588E-4
12.80664	0.998630000000	5.92E-4
13.01378	0.998595000000	6.267E-4
13.22426	0.998560000000	6.62E-4
13.43816	0.998525000000	6.993E-4
13.6555	0.998489000000	7.388E-4
13.87638	0.998452000000	7.812E-4
14.10083	0.998417000000	8.283E-4
14.32889	0.998385000000	8.782E-4
14.56065	0.998357000000	9.311E-4
14.79615	0.998342000000	9.872E-4
15.2549	0.998280000000	0.00103
15.2637	0.998280000000	0.00103
15.275	0.998280000000	0.00104
15.2843	0.998270000000	0.00104
15.2939	0.998270000000	0.00104
15.3047	0.998270000000	0.00104
15.3142	0.998270000000	0.00105
15.3241	0.998260000000	0.00105
15.3351	0.998260000000	0.00105
15.3432	0.998260000000	0.00105
15.356	0.998250000000	0.00106
15.3635	0.998250000000	0.00106
15.3747	0.998250000000	0.00106
15.3839	0.998250000000	0.00106
15.3946	0.998250000000	0.00107
15.4039	0.998250000000	0.00107
15.4154	0.998240000000	0.00107
15.4242	0.998240000000	0.00108
15.4352	0.998240000000	0.00108
15.444	0.998240000000	0.00108
15.4542	0.998240000000	0.00108
15.4643	0.998240000000	0.00108
15.4745	0.998230000000	0.00109
15.4836	0.998230000000	0.00109
15.4952	0.998230000000	0.00109
15.5037	0.998230000000	0.00109
15.5149	0.998230000000	0.0011
15.5246	0.998230000000	0.0011
15.5339	0.998220000000	0.0011
15.5447	0.998220000000	0.0011
15.5545	0.998220000000	0.0011
15.5636	0.998220000000	0.00111
15.5752	0.998210000000	0.00111
15.5839	0.998210000000	0.00111
15.5941	0.998210000000	0.00111
15.6048	0.998210000000	0.00112
15.6139	0.998210000000	0.00112
15.6246	0.998200000000	0.00112
15.6348	0.998200000000	0.00112
15.6434	0.998200000000	0.00112
15.6549	0.998190000000	0.00113
15.6648	0.998190000000	0.00113
15.6739	0.998190000000	0.00113
15.6843	0.998190000000	0.00114
15.6945	0.998180000000	0.00114
15.7038	0.998180000000	0.00114
15.7153	0.998180000000	0.00115
15.7235	0.998180000000	0.00115
15.7346	0.998170000000	0.00116
15.745	0.998170000000	0.00116
15.7535	0.998170000000	0.00116
15.7645	0.998170000000	0.00117
15.7747	0.998160000000	0.00117
15.7837	0.998160000000	0.00118
15.7955	0.998160000000	0.00118
15.8038	0.998160000000	0.00119
15.8142	0.998160000000	0.00119
15.8255	0.998160000000	0.0012
15.833	0.998160000000	0.0012
15.845	0.998150000000	0.0012
15.8539	0.998150000000	0.00121
15.8648	0.998150000000	0.00121
15.874	0.998150000000	0.00122
15.8847	0.998150000000	0.00122
15.8935	0.998150000000	0.00123
15.9058	0.998150000000	0.00123
15.9135	0.998150000000	0.00124
15.9247	0.998150000000	0.00124
15.9341	0.998150000000	0.00124
15.9446	0.998150000000	0.00125
15.9537	0.998150000000	0.00125
15.9647	0.998150000000	0.00126
15.974	0.998150000000	0.00126
15.9849	0.998150000000	0.00127
15.994	0.998150000000	0.00127
16.0045	0.998150000000	0.00127
16.0141	0.998150000000	0.00127
16.0249	0.998150000000	0.00128
16.0336	0.998150000000	0.00128
16.0449	0.998150000000	0.00128
16.054	0.998150000000	0.00129
16.0652	0.998150000000	0.00129
16.0737	0.998150000000	0.00129
16.0844	0.998150000000	0.00129
16.0944	0.998140000000	0.0013
16.1138	0.998140000000	0.00132
16.1247	0.998150000000	0.00133
16.1342	0.998150000000	0.00133
16.1447	0.998150000000	0.00133
16.1538	0.998160000000	0.00133
16.1647	0.998160000000	0.00133
16.1738	0.998160000000	0.00134
16.1851	0.998160000000	0.00134
16.1938	0.998160000000	0.00134
16.2044	0.998160000000	0.00134
16.214	0.998160000000	0.00135
16.2249	0.998160000000	0.00135
16.2345	0.998160000000	0.00135
16.2445	0.998170000000	0.00135
16.2541	0.998170000000	0.00136
16.2645	0.998170000000	0.00136
16.2741	0.998170000000	0.00136
16.2846	0.998170000000	0.00136
16.2945	0.998170000000	0.00137
16.3041	0.998170000000	0.00137
16.3145	0.998170000000	0.00137
16.3244	0.998170000000	0.00137
16.3343	0.998170000000	0.00138
16.3445	0.998180000000	0.00138
16.3538	0.998180000000	0.00138
16.3646	0.998180000000	0.00138
16.3742	0.998180000000	0.00139
16.3846	0.998180000000	0.00139
16.3942	0.998180000000	0.00139
16.405	0.998180000000	0.00139
16.4137	0.998180000000	0.0014
16.4247	0.998180000000	0.0014
16.4339	0.998190000000	0.0014
16.4446	0.998190000000	0.0014
16.4547	0.998190000000	0.0014
16.4643	0.998190000000	0.0014
16.474	0.998190000000	0.0014
16.4849	0.998200000000	0.00141
16.4943	0.998200000000	0.00141
16.504	0.998200000000	0.00141
16.5146	0.998200000000	0.00141
16.524	0.998200000000	0.00141
16.5348	0.998200000000	0.00141
16.5443	0.998200000000	0.00141
16.554	0.998200000000	0.00141
16.5649	0.998210000000	0.00141
16.5746	0.998210000000	0.00141
16.5837	0.998210000000	0.00141
16.5949	0.998210000000	0.00141
16.604	0.998210000000	0.00141
16.6148	0.998210000000	0.00141
16.624	0.998210000000	0.00141
16.6347	0.998210000000	0.00141
16.6435	0.998210000000	0.00141
16.6554	0.998210000000	0.00141
16.6637	0.998210000000	0.00141
16.6747	0.998210000000	0.00141
16.684	0.998200000000	0.00141
16.6947	0.998200000000	0.00141
16.7043	0.998200000000	0.00141
16.7145	0.998200000000	0.00141
16.7244	0.998200000000	0.00141
16.7341	0.998200000000	0.00141
16.7439	0.998200000000	0.00141
16.7552	0.998190000000	0.00141
16.7637	0.998190000000	0.00141
16.7744	0.998190000000	0.00141
16.7845	0.998190000000	0.00141
16.7947	0.998190000000	0.00141
16.8043	0.998180000000	0.00141
16.8145	0.998180000000	0.00141
16.8236	0.998180000000	0.00141
16.8352	0.998180000000	0.00141
16.8445	0.998180000000	0.00142
16.8539	0.998170000000	0.00142
16.8645	0.998170000000	0.00142
16.8747	0.998170000000	0.00142
16.8836	0.998170000000	0.00142
16.895	0.998170000000	0.00142
16.9042	0.998160000000	0.00142
16.9141	0.998160000000	0.00143
16.9247	0.998160000000	0.00143
16.9339	0.998160000000	0.00143
16.9445	0.998150000000	0.00143
16.9547	0.998150000000	0.00143
16.9639	0.998150000000	0.00143
16.9745	0.998140000000	0.00144
16.9847	0.998140000000	0.00144
16.9938	0.998140000000	0.00144
17.005	0.998140000000	0.00144
17.0139	0.998130000000	0.00145
17.0242	0.998130000000	0.00145
17.0347	0.998130000000	0.00145
17.0441	0.998130000000	0.00146
17.054	0.998120000000	0.00146
17.0652	0.998120000000	0.00147
17.0737	0.998120000000	0.00147
17.0848	0.998120000000	0.00148
17.0941	0.998110000000	0.00148
17.1045	0.998110000000	0.00148
17.1139	0.998110000000	0.00149
17.1246	0.998110000000	0.00149
17.1336	0.998110000000	0.00149
17.145	0.998110000000	0.0015
17.1545	0.998110000000	0.0015
17.1644	0.998110000000	0.00151
17.1746	0.998110000000	0.00151
17.184	0.998110000000	0.00151
17.1942	0.998110000000	0.00152
17.2048	0.998110000000	0.00152
17.2139	0.998100000000	0.00152
17.2241	0.998100000000	0.00153
17.2349	0.998100000000	0.00153
17.2444	0.998100000000	0.00154
17.2546	0.998100000000	0.00154
17.2642	0.998100000000	0.00155
17.2744	0.998100000000	0.00155
17.2843	0.998100000000	0.00156
17.2944	0.998100000000	0.00156
17.3041	0.998100000000	0.00157
17.3145	0.998100000000	0.00157
17.3241	0.998100000000	0.00158
17.3344	0.998100000000	0.00158
17.3445	0.998100000000	0.00159
17.3542	0.998100000000	0.00159
17.3645	0.998100000000	0.0016
17.3742	0.998110000000	0.0016
17.3843	0.998110000000	0.00161
17.3946	0.998110000000	0.00161
17.4038	0.998110000000	0.00161
17.4151	0.998110000000	0.00162
17.4239	0.998110000000	0.00162
17.4342	0.998110000000	0.00162
17.4448	0.998120000000	0.00163
17.4539	0.998120000000	0.00163
17.4644	0.998120000000	0.00163
17.4743	0.998120000000	0.00164
17.4849	0.998130000000	0.00164
17.4938	0.998130000000	0.00164
17.5047	0.998130000000	0.00165
17.5138	0.998130000000	0.00165
17.5248	0.998130000000	0.00165
17.5344	0.998130000000	0.00166
17.544	0.998140000000	0.00166
17.5548	0.998140000000	0.00166
17.5645	0.998140000000	0.00167
17.5741	0.998140000000	0.00167
17.5845	0.998150000000	0.00167
17.5941	0.998150000000	0.00167
17.6042	0.998150000000	0.00168
17.6145	0.998150000000	0.00168
17.6241	0.998160000000	0.00168
17.6348	0.998160000000	0.00168
17.6446	0.998160000000	0.00169
17.6538	0.998160000000	0.00169
17.6642	0.998170000000	0.00169
17.6749	0.998170000000	0.00169
17.6837	0.998170000000	0.00169
17.6949	0.998180000000	0.0017
17.7041	0.998180000000	0.0017
17.7147	0.998180000000	0.0017
17.7246	0.998180000000	0.0017
17.7338	0.998190000000	0.0017
17.7442	0.998190000000	0.0017
17.7546	0.998190000000	0.0017
17.7639	0.998200000000	0.00171
17.7747	0.998200000000	0.00171
17.7845	0.998200000000	0.00171
17.7943	0.998210000000	0.00171
17.8046	0.998210000000	0.00171
17.814	0.998210000000	0.00171
17.8242	0.998220000000	0.00171
17.8347	0.998220000000	0.00171
17.844	0.998230000000	0.00171
17.8541	0.998230000000	0.00171
17.8648	0.998230000000	0.00171
17.8744	0.998240000000	0.00171
17.8846	0.998240000000	0.0017
17.894	0.998240000000	0.0017
17.9044	0.998250000000	0.0017
17.9144	0.998250000000	0.0017
17.924	0.998250000000	0.0017
17.9344	0.998260000000	0.0017
17.9446	0.998260000000	0.00169
17.9542	0.998260000000	0.00169
17.9644	0.998260000000	0.00169
17.9743	0.998270000000	0.00169
17.9844	0.998270000000	0.00168
17.9946	0.998270000000	0.00168
18.0039	0.998270000000	0.00167
18.0146	0.998270000000	0.00167
18.0243	0.998270000000	0.00166
18.0347	0.998270000000	0.00166
18.0441	0.998270000000	0.00165
18.0545	0.998270000000	0.00165
18.0641	0.998270000000	0.00164
18.0746	0.998270000000	0.00164
18.0839	0.998270000000	0.00163
18.0946	0.998260000000	0.00162
18.1046	0.998260000000	0.00162
18.1142	0.998260000000	0.00161
18.124	0.998250000000	0.00161
18.1348	0.998250000000	0.00161
18.1438	0.998240000000	0.00161
18.1548	0.998240000000	0.0016
18.1639	0.998230000000	0.0016
18.1739	0.998230000000	0.0016
18.185	0.998220000000	0.0016
18.1947	0.998210000000	0.00159
18.204	0.998210000000	0.00159
18.2143	0.998200000000	0.00159
18.2246	0.998200000000	0.00159
18.2337	0.998190000000	0.00159
18.245	0.998180000000	0.00159
18.254	0.998180000000	0.00159
18.2648	0.998170000000	0.00159
18.2744	0.998170000000	0.0016
18.2837	0.998160000000	0.0016
18.2945	0.998150000000	0.0016
18.3046	0.998150000000	0.0016
18.3138	0.998140000000	0.0016
18.3247	0.998140000000	0.0016
18.3348	0.998130000000	0.00161
18.3442	0.998130000000	0.00161
18.3542	0.998120000000	0.00161
18.3643	0.998110000000	0.00162
18.3744	0.998110000000	0.00162
18.3843	0.998100000000	0.00162
18.3939	0.998100000000	0.00163
18.4047	0.998090000000	0.00163
18.4146	0.998090000000	0.00164
18.4242	0.998080000000	0.00164
18.4342	0.998080000000	0.00165
18.4443	0.998070000000	0.00165
18.4541	0.998070000000	0.00166
18.4646	0.998060000000	0.00166
18.474	0.998060000000	0.00167
18.4847	0.998050000000	0.00168
18.4945	0.998050000000	0.00169
18.5042	0.998050000000	0.00169
18.5142	0.998040000000	0.0017
18.5246	0.998040000000	0.00171
18.5339	0.998040000000	0.00172
18.5447	0.998040000000	0.00173
18.5539	0.998040000000	0.00174
18.5641	0.998040000000	0.00174
18.5748	0.998040000000	0.00175
18.584	0.998040000000	0.00176
18.5946	0.998050000000	0.00177
18.6043	0.998050000000	0.00178
18.6145	0.998060000000	0.00178
18.6238	0.998060000000	0.00179
18.6353	0.998060000000	0.0018
18.6436	0.998070000000	0.0018
18.6549	0.998080000000	0.0018
18.664	0.998080000000	0.00181
18.6743	0.998090000000	0.00181
18.6842	0.998090000000	0.00181
18.6949	0.998100000000	0.00181
18.7038	0.998100000000	0.00181
18.715	0.998110000000	0.00181
18.7238	0.998110000000	0.00181
18.7349	0.998110000000	0.00181
18.7442	0.998110000000	0.00181
18.7541	0.998110000000	0.00181
18.7642	0.998120000000	0.0018
18.7745	0.998120000000	0.0018
18.784	0.998120000000	0.0018
18.7951	0.998120000000	0.0018
18.8039	0.998120000000	0.0018
18.8146	0.998120000000	0.0018
18.8244	0.998120000000	0.00179
18.834	0.998110000000	0.00179
18.8445	0.998110000000	0.00179
18.8544	0.998110000000	0.00179
18.8637	0.998110000000	0.00179
18.875	0.998110000000	0.00179
18.8846	0.998100000000	0.00179
18.894	0.998100000000	0.00179
18.9045	0.998100000000	0.00179
18.914	0.998090000000	0.00179
18.9243	0.998090000000	0.00178
18.9349	0.998090000000	0.00178
18.944	0.998080000000	0.00178
18.9547	0.998080000000	0.00178
18.9643	0.998070000000	0.00179
18.974	0.998060000000	0.00179
18.9844	0.998060000000	0.00179
18.9951	0.998050000000	0.00179
19.0034	0.998050000000	0.0018
19.0149	0.998040000000	0.0018
19.0242	0.998030000000	0.00181
19.0342	0.998030000000	0.00181
19.0451	0.998020000000	0.00182
19.0539	0.998020000000	0.00183
19.0644	0.998010000000	0.00184
19.0741	0.998010000000	0.00184
19.0844	0.998010000000	0.00185
19.0943	0.998010000000	0.00186
19.1046	0.998000000000	0.00187
19.1141	0.998000000000	0.00187
19.1249	0.998000000000	0.00189
19.1339	0.998010000000	0.00189
19.1446	0.998000000000	0.00189
19.1541	0.998000000000	0.0019
19.1644	0.998010000000	0.00191
19.1741	0.998010000000	0.00191
19.185	0.998010000000	0.00192
19.1939	0.998010000000	0.00193
19.2052	0.998010000000	0.00193
19.2137	0.998010000000	0.00194
19.2244	0.998010000000	0.00194
19.234	0.998010000000	0.00195
19.2447	0.998010000000	0.00196
19.2541	0.998010000000	0.00196
19.2643	0.998010000000	0.00197
19.2742	0.998010000000	0.00197
19.2849	0.998010000000	0.00198
19.2942	0.998020000000	0.00199
19.3039	0.998020000000	0.00199
19.3143	0.998020000000	0.002
19.3244	0.998020000000	0.00201
19.3343	0.998030000000	0.00201
19.3446	0.998030000000	0.00202
19.3541	0.998030000000	0.00203
19.3645	0.998040000000	0.00204
19.3748	0.998050000000	0.00204
19.3833	0.998050000000	0.00205
19.395	0.998060000000	0.00205
19.4045	0.998070000000	0.00206
19.4137	0.998070000000	0.00206
19.4245	0.998080000000	0.00206
19.4347	0.998090000000	0.00207
19.4438	0.998100000000	0.00207
19.455	0.998110000000	0.00207
19.4636	0.998110000000	0.00206
19.4746	0.998120000000	0.00206
19.4849	0.998120000000	0.00206
19.494	0.998130000000	0.00206
19.5042	0.998130000000	0.00206
19.5149	0.998130000000	0.00205
19.5238	0.998140000000	0.00205
19.5345	0.998140000000	0.00205
19.5441	0.998140000000	0.00204
19.5543	0.998140000000	0.00204
19.5642	0.998140000000	0.00204
19.5746	0.998150000000	0.00204
19.5842	0.998150000000	0.00204
19.5949	0.998150000000	0.00204
19.6039	0.998150000000	0.00203
19.6144	0.998150000000	0.00203
19.6244	0.998150000000	0.00203
19.6342	0.998150000000	0.00203
19.6444	0.998160000000	0.00203
19.6543	0.998160000000	0.00203
19.6642	0.998160000000	0.00202
19.6751	0.998160000000	0.00202
19.6839	0.998160000000	0.00202
19.6942	0.998160000000	0.00201
19.7043	0.998160000000	0.00201
19.7145	0.998160000000	0.002
19.7239	0.998160000000	0.002
19.7349	0.998150000000	0.00199
19.7439	0.998150000000	0.00199
19.7552	0.998140000000	0.00198
19.7639	0.998140000000	0.00198
19.7746	0.998130000000	0.00197
19.7841	0.998120000000	0.00197
19.7947	0.998110000000	0.00197
19.8039	0.998110000000	0.00197
19.8146	0.998100000000	0.00197
19.8239	0.998090000000	0.00197
19.8349	0.998080000000	0.00197
19.8437	0.998070000000	0.00197
19.8546	0.998060000000	0.00198
19.8645	0.998050000000	0.00198
19.8742	0.998040000000	0.00199
19.8844	0.998040000000	0.002
19.8945	0.998030000000	0.002
19.9041	0.998030000000	0.00201
19.9149	0.998020000000	0.00202
19.9242	0.998020000000	0.00203
19.9336	0.998020000000	0.00204
19.9448	0.998020000000	0.00204
19.9545	0.998020000000	0.00205
19.964	0.998020000000	0.00206
19.9746	0.998020000000	0.00206
19.9844	0.998030000000	0.00207
19.9943	0.998030000000	0.00207
20.0042	0.998030000000	0.00208
20.0139	0.998030000000	0.00208
20.0251	0.998030000000	0.00208
20.0345	0.998030000000	0.00208
20.0436	0.998030000000	0.00208
20.055	0.998030000000	0.00208
20.0642	0.998030000000	0.00207
20.0737	0.998020000000	0.00208
20.0847	0.998030000000	0.00208
20.0938	0.998030000000	0.00207
20.1048	0.998020000000	0.00207
20.1137	0.998010000000	0.00206
20.1248	0.998000000000	0.00207
20.1339	0.998000000000	0.00208
20.1447	0.997990000000	0.00207
20.1538	0.997980000000	0.00207
20.165	0.997970000000	0.00208
20.1735	0.997970000000	0.00208
20.1848	0.997960000000	0.00208
20.1941	0.997950000000	0.00208
20.2046	0.997940000000	0.00209
20.2139	0.997940000000	0.00209
20.2249	0.997920000000	0.0021
20.234	0.997910000000	0.00211
20.245	0.997910000000	0.00212
20.2537	0.997910000000	0.00213
20.2647	0.997900000000	0.00213
20.2741	0.997890000000	0.00214
20.2838	0.997890000000	0.00215
20.295	0.997880000000	0.00216
20.3039	0.997870000000	0.00217
20.3145	0.997870000000	0.00218
20.3237	0.997870000000	0.00219
20.3352	0.997870000000	0.0022
20.344	0.997870000000	0.0022
20.3555	0.997860000000	0.00221
20.364	0.997860000000	0.00223
20.3742	0.997860000000	0.00223
20.3846	0.997860000000	0.00223
20.3942	0.997860000000	0.00223
20.4038	0.997850000000	0.00224
20.4152	0.997840000000	0.00224
20.4244	0.997840000000	0.00225
20.4342	0.997830000000	0.00225
20.4443	0.997830000000	0.00225
20.4542	0.997820000000	0.00226
20.4643	0.997810000000	0.00227
20.4745	0.997800000000	0.00227
20.4842	0.997800000000	0.00228
20.494	0.997790000000	0.00228
20.5045	0.997770000000	0.00229
20.5139	0.997760000000	0.0023
20.5245	0.997740000000	0.00231
20.5341	0.997740000000	0.00232
20.5446	0.997730000000	0.00233
20.5539	0.997710000000	0.00234
20.5647	0.997700000000	0.00236
20.574	0.997690000000	0.00238
20.5848	0.997690000000	0.00239
20.594	0.997680000000	0.00241
20.6049	0.997670000000	0.00242
20.6141	0.997660000000	0.00244
20.6248	0.997660000000	0.00246
20.6339	0.997650000000	0.00247
20.6446	0.997650000000	0.00248
20.654	0.997640000000	0.00249
20.6642	0.997630000000	0.00251
20.6743	0.997620000000	0.00252
20.6843	0.997620000000	0.00254
20.6942	0.997610000000	0.00255
20.7041	0.997600000000	0.00256
20.7143	0.997590000000	0.00257
20.7247	0.997580000000	0.00259
20.7337	0.997570000000	0.00259
20.7453	0.997550000000	0.00261
20.754	0.997530000000	0.00263
20.7645	0.997520000000	0.00265
20.7745	0.997500000000	0.00266
20.7838	0.997490000000	0.00268
20.7948	0.997470000000	0.00271
20.8038	0.997450000000	0.00273
20.8148	0.997420000000	0.00276
20.8238	0.997410000000	0.0028
20.8347	0.997390000000	0.00282
20.8432	0.997370000000	0.00286
20.8558	0.997360000000	0.00291
20.8638	0.997350000000	0.00294
20.8744	0.997340000000	0.00298
20.8841	0.997330000000	0.00302
20.8943	0.997330000000	0.00306
20.9041	0.997320000000	0.0031
20.9144	0.997330000000	0.00314
20.924	0.997330000000	0.00318
20.935	0.997330000000	0.0032
20.9437	0.997330000000	0.00324
20.9548	0.997340000000	0.00327
20.9638	0.997340000000	0.00328
20.975	0.997330000000	0.00329
20.9839	0.997310000000	0.00329
21	0.997250000000	0.00332
21.03	0.997060000000	0.00336
21.05	0.996860000000	0.00352
21.1	0.996470000000	0.00417
21.15	0.996260000000	0.00542
21.2	0.997220000000	0.00774
21.21	0.997730000000	0.00831
21.22	0.998520000000	0.00884
21.23	0.999570000000	0.00913
21.24	1.00083000000	0.0091
21.25	1.00211000000	0.0085
21.26	1.00290000000	0.00724
21.3	1.00265000000	0.00333
21.32	1.00150000000	0.00274
21.34	1.00062000000	0.00256
21.36	0.999890000000	0.00259
21.38	0.999260000000	0.0028
21.4	0.998700000000	0.00318
21.45	0.998010000000	0.00473
21.5	0.998440000000	0.00719
21.52	0.999240000000	0.00875
21.54	1.00151000000	0.01061
21.55	1.00357000000	0.01084
21.56	1.00564000000	0.00999
21.58	1.00760000000	0.00654
21.6	1.00729000000	0.00355
21.6141	1.00662000000	0.00265
21.6244	1.00622000000	0.00187
21.6342	1.00570000000	0.00129
21.645	1.00508000000	8.716E-4
21.6535	1.00462000000	6.914E-4
21.6648	1.00412000000	5.636E-4
21.6736	1.00379000000	5.154E-4
21.685	1.00346000000	4.79E-4
21.7045	1.00300000000	3.898E-4
21.7252	1.00259000000	3.738E-4
21.7441	1.00230000000	3.609E-4
21.7651	1.00203000000	3.525E-4
21.7843	1.00183000000	3.506E-4
21.8047	1.00164000000	3.428E-4
21.8245	1.00147000000	3.4E-4
21.8447	1.00132000000	3.382E-4
21.8645	1.00119000000	3.365E-4
21.8854	1.00106000000	3.349E-4
21.941	1.00078000000	3.354E-4
21.9603	1.00069000000	3.358E-4
21.9814	1.00061000000	3.364E-4
21.9999	1.00054000000	3.368E-4
22.0205	1.00046000000	3.374E-4
22.041	1.00039000000	3.381E-4
22.0609	1.00033000000	3.387E-4
22.0804	1.00027000000	3.396E-4
22.1005	1.00021000000	3.407E-4
22.121	1.00015000000	3.418E-4
22.1405	1.00010000000	3.424E-4
22.1607	1.00005000000	3.437E-4
22.1802	1.00001000000	3.443E-4
22.2016	0.999960000000	3.425E-4
22.2201	0.999910000000	3.462E-4
22.2406	0.999870000000	3.473E-4
22.2604	0.999830000000	3.486E-4
22.2813	0.999790000000	3.498E-4
22.3	0.999750000000	3.509E-4
22.3209	0.999720000000	3.516E-4
22.3401	0.999680000000	3.525E-4
22.3613	0.999640000000	3.536E-4
22.3808	0.999610000000	3.547E-4
22.4	0.999580000000	3.556E-4
22.4207	0.999550000000	3.562E-4
22.4411	0.999520000000	3.64E-4
22.4603	0.999490000000	3.587E-4
22.4803	0.999460000000	3.573E-4
22.501	0.999430000000	3.611E-4
22.5205	0.999400000000	3.617E-4
22.5409	0.999380000000	3.631E-4
22.5603	0.999350000000	3.643E-4
22.5809	0.999320000000	3.658E-4
22.6008	0.999300000000	3.664E-4
22.6203	0.999280000000	3.674E-4
22.6406	0.999250000000	3.69E-4
22.6606	0.999230000000	3.699E-4
22.6809	0.999200000000	3.714E-4
22.7005	0.999180000000	3.729E-4
22.7206	0.999160000000	3.744E-4
22.7409	0.999140000000	3.762E-4
22.7607	0.999120000000	3.787E-4
22.7805	0.999100000000	3.8E-4
22.8009	0.999080000000	3.81E-4
22.8204	0.999060000000	3.829E-4
22.841	0.999040000000	3.836E-4
22.8604	0.999020000000	3.842E-4
22.8808	0.999000000000	3.854E-4
22.9001	0.998980000000	3.866E-4
22.9212	0.998960000000	3.887E-4
22.9404	0.998940000000	3.9E-4
22.9608	0.998920000000	3.911E-4
22.9804	0.998910000000	3.933E-4
23.0009	0.998890000000	3.944E-4
23.0204	0.998870000000	3.959E-4
23.0409	0.998860000000	3.972E-4
23.0605	0.998840000000	3.98E-4
23.081	0.998830000000	3.985E-4
23.1004	0.998810000000	3.983E-4
23.1203	0.998800000000	3.98E-4
23.1409	0.998780000000	3.991E-4
23.1609	0.998760000000	3.998E-4
23.1801	0.998750000000	4.01E-4
23.2007	0.998730000000	4.023E-4
23.2214	0.998710000000	4.043E-4
23.2403	0.998700000000	4.067E-4
23.2605	0.998690000000	4.093E-4
23.2808	0.998670000000	4.118E-4
23.3003	0.998660000000	4.128E-4
23.3214	0.998650000000	4.122E-4
23.3399	0.998640000000	4.115E-4
23.361	0.998620000000	4.11E-4
23.3806	0.998610000000	4.109E-4
23.4	0.998590000000	4.109E-4
23.4213	0.998580000000	4.119E-4
23.4407	0.998560000000	4.13E-4
23.4608	0.998550000000	4.151E-4
23.4808	0.998530000000	4.157E-4
23.5001	0.998520000000	4.169E-4
23.5211	0.998510000000	4.18E-4
23.5408	0.998500000000	4.194E-4
23.5601	0.998480000000	4.202E-4
23.5807	0.998470000000	4.219E-4
23.601	0.998460000000	4.228E-4
23.6205	0.998440000000	4.255E-4
23.6404	0.998430000000	4.259E-4
23.6607	0.998420000000	4.273E-4
23.6805	0.998410000000	4.284E-4
23.701	0.998400000000	4.296E-4
23.7205	0.998380000000	4.309E-4
23.7403	0.998370000000	4.319E-4
23.7615	0.998360000000	4.326E-4
23.7805	0.998350000000	4.337E-4
23.8002	0.998340000000	4.355E-4
23.8211	0.998320000000	4.373E-4
23.8409	0.998310000000	4.387E-4
23.8605	0.998300000000	4.393E-4
23.8806	0.998290000000	4.408E-4
23.9009	0.998280000000	4.418E-4
23.9199	0.998270000000	4.43E-4
23.9411	0.998260000000	4.443E-4
23.9608	0.998250000000	4.454E-4
23.9804	0.998230000000	4.472E-4
24.0007	0.998220000000	4.482E-4
24.0205	0.998210000000	4.495E-4
24.0411	0.998200000000	4.503E-4
24.0601	0.998190000000	4.517E-4
24.0806	0.998180000000	4.531E-4
24.101	0.998170000000	4.54E-4
24.1205	0.998160000000	4.554E-4
24.1401	0.998150000000	4.54E-4
24.1604	0.998140000000	4.581E-4
24.1816	0.998130000000	4.591E-4
24.2003	0.998120000000	4.602E-4
24.2203	0.998110000000	4.62E-4
24.2406	0.998100000000	4.633E-4
24.2616	0.998090000000	4.649E-4
24.2802	0.998080000000	4.651E-4
24.3003	0.998070000000	4.665E-4
24.3214	0.998050000000	4.686E-4
24.3404	0.998050000000	4.719E-4
24.3608	0.998040000000	4.71E-4
24.3802	0.998030000000	4.726E-4
24.4012	0.998020000000	4.745E-4
24.4205	0.998010000000	4.761E-4
24.4402	0.998000000000	4.769E-4
24.4606	0.997990000000	4.779E-4
24.4811	0.997980000000	4.799E-4
24.5003	0.997970000000	4.81E-4
24.5207	0.997960000000	4.823E-4
24.5408	0.997950000000	4.837E-4
24.5608	0.997940000000	4.853E-4
24.5807	0.997930000000	4.865E-4
24.6004	0.997920000000	4.879E-4
24.6202	0.997910000000	4.891E-4
24.6417	0.997900000000	4.905E-4
24.6601	0.997890000000	4.927E-4
24.6805	0.997880000000	4.933E-4
24.7011	0.997870000000	4.956E-4
24.7203	0.997870000000	4.967E-4
24.7401	0.997860000000	4.978E-4
24.7612	0.997850000000	4.994E-4
24.7807	0.997840000000	4.984E-4
24.8011	0.997830000000	5.038E-4
24.82	0.997820000000	5.028E-4
24.8412	0.997810000000	5.048E-4
24.86	0.997800000000	5.055E-4
24.8816	0.997790000000	5.074E-4
24.8995	0.997790000000	5.089E-4
24.921	0.997780000000	5.103E-4
24.9407	0.997770000000	5.115E-4
24.9609	0.997760000000	5.128E-4
24.9801	0.997750000000	5.136E-4
25.001	0.997740000000	5.145E-4
25.0204	0.997730000000	5.158E-4
25.041	0.997720000000	5.178E-4
25.06	0.997720000000	5.18E-4
25.0812	0.997710000000	5.194E-4
25.1001	0.997700000000	5.212E-4
25.1216	0.997690000000	5.227E-4
25.14	0.997680000000	5.239E-4
25.1609	0.997670000000	5.255E-4
25.1804	0.997670000000	5.265E-4
25.2014	0.997660000000	5.274E-4
25.2203	0.997650000000	5.286E-4
25.2407	0.997640000000	5.305E-4
25.2599	0.997630000000	5.312E-4
25.2818	0.997620000000	5.364E-4
25.3002	0.997620000000	5.346E-4
25.3206	0.997610000000	5.355E-4
25.3401	0.997600000000	5.365E-4
25.3619	0.997590000000	5.35E-4
25.3797	0.997580000000	5.392E-4
25.4006	0.997570000000	5.402E-4
25.4204	0.997570000000	5.414E-4
25.4415	0.997560000000	5.423E-4
25.46	0.997550000000	5.437E-4
25.4801	0.997540000000	5.449E-4
25.5018	0.997530000000	5.466E-4
25.5202	0.997520000000	5.475E-4
25.5405	0.997510000000	5.491E-4
25.5598	0.997510000000	5.504E-4
25.5818	0.997500000000	5.523E-4
25.6002	0.997490000000	5.526E-4
25.6207	0.997480000000	5.542E-4
25.6395	0.997470000000	5.553E-4
25.662	0.997470000000	5.566E-4
25.6801	0.997460000000	5.578E-4
25.7007	0.997450000000	5.591E-4
25.7203	0.997440000000	5.608E-4
25.742	0.997430000000	5.622E-4
25.7593	0.997430000000	5.631E-4
25.781	0.997420000000	5.649E-4
25.8008	0.997410000000	5.66E-4
25.8214	0.997400000000	5.67E-4
25.8396	0.997390000000	5.684E-4
25.861	0.997380000000	5.747E-4
25.8805	0.997380000000	5.71E-4
25.9009	0.997370000000	5.72E-4
25.9202	0.997360000000	5.742E-4
25.9408	0.997350000000	5.758E-4
25.9606	0.997350000000	5.772E-4
25.9806	0.997340000000	5.779E-4
26.0001	0.997330000000	5.78E-4
26.0211	0.997320000000	5.811E-4
26.0406	0.997310000000	5.821E-4
26.0609	0.997310000000	5.84E-4
26.0801	0.997300000000	5.846E-4
26.101	0.997290000000	5.867E-4
26.121	0.997280000000	5.884E-4
26.1403	0.997270000000	5.901E-4
26.1607	0.997270000000	5.913E-4
26.1802	0.997260000000	5.929E-4
26.2016	0.997250000000	5.941E-4
26.2202	0.997240000000	5.949E-4
26.2411	0.997230000000	5.964E-4
26.2601	0.997230000000	5.976E-4
26.281	0.997220000000	5.993E-4
26.3005	0.997210000000	6.01E-4
26.3211	0.997200000000	6.022E-4
26.3398	0.997200000000	6.036E-4
26.3613	0.997190000000	6.052E-4
26.3805	0.997180000000	6.068E-4
26.4006	0.997170000000	6.079E-4
26.4202	0.997160000000	6.094E-4
26.441	0.997160000000	6.111E-4
26.4608	0.997150000000	6.145E-4
26.4803	0.997140000000	6.126E-4
26.5004	0.997130000000	6.144E-4
26.5211	0.997130000000	6.155E-4
26.5408	0.997120000000	6.175E-4
26.5595	0.997110000000	6.198E-4
26.5815	0.997100000000	6.206E-4
26.6007	0.997100000000	6.229E-4
26.6207	0.997090000000	6.243E-4
26.6401	0.997080000000	6.266E-4
26.6609	0.997080000000	6.262E-4
26.681	0.997070000000	6.262E-4
26.7005	0.997060000000	6.28E-4
26.7203	0.997050000000	6.294E-4
26.7409	0.997040000000	6.308E-4
26.7609	0.997040000000	6.34E-4
26.7803	0.997030000000	6.363E-4
26.8003	0.997020000000	6.349E-4
26.8211	0.997010000000	6.372E-4
26.8407	0.997010000000	6.381E-4
26.8602	0.997000000000	6.406E-4
26.8805	0.996990000000	6.412E-4
26.9012	0.996980000000	6.469E-4
26.9207	0.996980000000	6.435E-4
26.9401	0.996970000000	6.475E-4
26.9613	0.996960000000	6.466E-4
26.9801	0.996950000000	6.483E-4
27.001	0.996940000000	6.5E-4
27.0204	0.996940000000	6.519E-4
27.041	0.996930000000	6.526E-4
27.0606	0.996920000000	6.547E-4
27.081	0.996920000000	6.533E-4
27.0999	0.996910000000	6.565E-4
27.1211	0.996900000000	6.584E-4
27.1403	0.996890000000	6.609E-4
27.1612	0.996880000000	6.623E-4
27.1801	0.996880000000	6.642E-4
27.2013	0.996870000000	6.648E-4
27.22	0.996860000000	6.667E-4
27.2411	0.996860000000	6.676E-4
27.2599	0.996850000000	6.691E-4
27.2816	0.996840000000	6.709E-4
27.3	0.996830000000	6.72E-4
27.3208	0.996820000000	6.734E-4
27.3409	0.996820000000	6.76E-4
27.3607	0.996810000000	6.774E-4
27.3805	0.996800000000	6.799E-4
27.4008	0.996800000000	6.802E-4
27.4206	0.996790000000	6.808E-4
27.4408	0.996780000000	6.83E-4
27.4603	0.996770000000	6.842E-4
27.4808	0.996770000000	6.855E-4
27.5007	0.996760000000	6.868E-4
27.5202	0.996750000000	6.899E-4
27.5407	0.996740000000	6.913E-4
27.5612	0.996740000000	6.927E-4
27.5801	0.996730000000	6.936E-4
27.6005	0.996720000000	6.954E-4
27.6211	0.996710000000	6.967E-4
27.64	0.996710000000	6.98E-4
27.6615	0.996700000000	6.999E-4
27.6799	0.996690000000	7.008E-4
27.7016	0.996680000000	7.024E-4
27.72	0.996670000000	7.042E-4
27.7406	0.996670000000	7.058E-4
27.7602	0.996660000000	7.111E-4
27.7818	0.996650000000	7.113E-4
27.7998	0.996650000000	7.109E-4
27.8206	0.996640000000	7.135E-4
27.8405	0.996630000000	7.152E-4
27.8613	0.996620000000	7.165E-4
27.8802	0.996620000000	7.175E-4
27.9006	0.996610000000	7.198E-4
27.9206	0.996600000000	7.21E-4
27.9412	0.996600000000	7.212E-4
27.96	0.996590000000	7.236E-4
27.9811	0.996580000000	7.252E-4
28.0003	0.996570000000	7.26E-4
28.0213	0.996560000000	7.279E-4
28.0405	0.996560000000	7.308E-4
28.0601	0.996550000000	7.325E-4
28.0809	0.996540000000	7.346E-4
28.1008	0.996530000000	7.366E-4
28.1205	0.996530000000	7.372E-4
28.1403	0.996520000000	7.401E-4
28.1609	0.996510000000	7.407E-4
28.181	0.996500000000	7.412E-4
28.2002	0.996500000000	7.441E-4
28.302	0.996460000000	7.547E-4
28.4012	0.996430000000	7.608E-4
28.5021	0.996390000000	7.693E-4
28.6012	0.996350000000	7.782E-4
28.7019	0.996310000000	7.862E-4
28.8019	0.996280000000	7.959E-4
28.9017	0.996240000000	8.045E-4
29.0014	0.996200000000	8.14E-4
29.1021	0.996170000000	8.234E-4
29.2018	0.996130000000	8.328E-4
29.3014	0.996090000000	8.419E-4
29.402	0.996060000000	8.518E-4
29.5012	0.996020000000	8.607E-4
29.6024	0.995990000000	8.717E-4
29.701	0.995950000000	8.811E-4
29.8021	0.995910000000	8.923E-4
29.9017	0.995880000000	9.022E-4
30.0017	0.995840000000	9.13E-4
30.1016	0.995810000000	9.251E-4
30.2021	0.995770000000	9.328E-4
30.3019	0.995740000000	9.448E-4
30.4015	0.995700000000	9.518E-4
30.5017	0.995670000000	9.632E-4
30.6016	0.995630000000	9.716E-4
30.7021	0.995590000000	9.803E-4
30.8011	0.995560000000	9.942E-4
30.9022	0.995530000000	0.00101
31.0017	0.995490000000	0.00101
31.1016	0.995450000000	0.00102
31.2021	0.995410000000	0.00103
31.3014	0.995380000000	0.00104
31.4022	0.995350000000	0.00105
31.5012	0.995310000000	0.00106
31.6026	0.995280000000	0.00107
31.7011	0.995240000000	0.00108
31.8022	0.995200000000	0.00109
31.9011	0.995170000000	0.0011
32.0018	0.995130000000	0.00111
32.1026	0.995100000000	0.00112
32.2011	0.995060000000	0.00113
32.3022	0.995030000000	0.00114
32.4016	0.994990000000	0.00115
32.502	0.994960000000	0.00116
32.6016	0.994920000000	0.00117
32.7018	0.994880000000	0.00118
32.8016	0.994850000000	0.00119
32.9022	0.994810000000	0.0012
33.0012	0.994770000000	0.00121
33.1021	0.994730000000	0.00121
33.2018	0.994700000000	0.00123
33.3019	0.994660000000	0.00123
33.4016	0.994620000000	0.00124
33.5014	0.994580000000	0.00125
33.6024	0.994540000000	0.00127
33.7011	0.994510000000	0.00127
33.8022	0.994470000000	0.00128
33.9011	0.994430000000	0.00129
34.0022	0.994390000000	0.00131
34.1013	0.994350000000	0.00132
34.2019	0.994310000000	0.00133
34.3017	0.994270000000	0.00134
34.4019	0.994230000000	0.00135
34.5014	0.994190000000	0.00137
34.6024	0.994150000000	0.00138
34.7013	0.994110000000	0.00139
34.8017	0.994070000000	0.0014
34.9019	0.994030000000	0.00142
35.0018	0.993990000000	0.00143
35.1018	0.993950000000	0.00144
35.2013	0.993910000000	0.00145
35.3021	0.993870000000	0.00147
35.4015	0.993830000000	0.00148
35.5014	0.993790000000	0.0015
35.6018	0.993750000000	0.00151
35.7013	0.993710000000	0.00153
35.8021	0.993670000000	0.00154
35.9011	0.993630000000	0.00156
36.0018	0.993600000000	0.00157
36.1016	0.993560000000	0.00159
36.20161	0.993520000000	0.0016
36.3014	0.993480000000	0.00162
36.4016	0.993440000000	0.00163
36.5014	0.993400000000	0.00165
36.602	0.993360000000	0.00166
36.7013	0.993330000000	0.00168
36.8019	0.993290000000	0.00169
36.9015	0.993250000000	0.00171
37.0011	0.993210000000	0.00173
37.1021	0.993170000000	0.00174
37.2013	0.993130000000	0.00175
37.3019	0.993090000000	0.00177
37.40139	0.993060000000	0.00178
37.5015	0.993020000000	0.0018
37.6018	0.992980000000	0.00182
37.7016	0.992940000000	0.00183
37.8017	0.992910000000	0.00184
37.9014	0.992870000000	0.00186
38.00179	0.992830000000	0.00186
38.1009	0.992790000000	0.00189
38.2016	0.992750000000	0.0019
38.3021	0.992710000000	0.00192
38.4012	0.992670000000	0.00193
38.50119	0.992630000000	0.00194
38.60201	0.992590000000	0.00196
38.70129	0.992550000000	0.00197
38.8016	0.992510000000	0.00199
38.9016	0.992470000000	0.002
39.00171	0.992430000000	0.00201
39.1015	0.992390000000	0.00203
39.20099	0.992350000000	0.00205
39.3022	0.992300000000	0.00206
39.4006	0.992260000000	0.00208
39.5022	0.992230000000	0.0021
39.6006	0.992180000000	0.00212
39.7023	0.992140000000	0.00214
39.8013	0.992100000000	0.00215
39.9017	0.992060000000	0.00217
40.0015	0.992020000000	0.0022
40.1012	0.991990000000	0.00222
40.2021	0.991940000000	0.00223
40.3008	0.991910000000	0.00226
40.402	0.991870000000	0.00228
40.50141	0.991830000000	0.0023
40.552	0.991810000000	0.00231
40.5994	0.991800000000	0.00232
40.6513	0.991780000000	0.00233
40.7004	0.991770000000	0.00234
40.75159	0.991750000000	0.00235
40.7999	0.991740000000	0.00236
40.8519	0.991720000000	0.00237
40.8997	0.991710000000	0.00237
40.95169	0.991690000000	0.00238
41.00041	0.991670000000	0.00238
41.0501	0.991650000000	0.0024
41.1012	0.991640000000	0.0024
41.15099	0.991620000000	0.00241
41.20019	0.991600000000	0.00242
41.25139	0.991590000000	0.00243
41.301	0.991570000000	0.00243
41.3499	0.991550000000	0.00244
41.4019	0.991530000000	0.00244
41.4495	0.991520000000	0.00245
41.502	0.991500000000	0.00246
41.5498	0.991480000000	0.00246
41.6009	0.991460000000	0.00247
41.651	0.991440000000	0.00248
41.7008	0.991430000000	0.00248
41.75001	0.991410000000	0.00249
41.80191	0.991390000000	0.0025
41.85001	0.991380000000	0.0025
41.90089	0.991360000000	0.00251
41.9511	0.991340000000	0.00251
42.0003	0.991320000000	0.00252
42.05091	0.991300000000	0.00252
42.1007	0.991280000000	0.00253
42.15069	0.991260000000	0.00254
42.20081	0.991250000000	0.00254
42.251	0.991230000000	0.00255
42.3002	0.991210000000	0.00256
42.3514	0.991200000000	0.00256
42.40089	0.991180000000	0.00256
42.45001	0.991160000000	0.00257
42.5014	0.991140000000	0.00257
42.55011	0.991120000000	0.00257
42.6009	0.991100000000	0.00257
42.65119	0.991080000000	0.00258
42.7004	0.991050000000	0.00259
42.7508	0.991040000000	0.0026
42.80101	0.991020000000	0.0026
42.84981	0.991010000000	0.00261
42.9017	0.990990000000	0.0026
42.9503	0.990960000000	0.00261
43.00069	0.990940000000	0.00262
43.05091	0.990920000000	0.00262
43.0999	0.990910000000	0.00262
43.1516	0.990890000000	0.00262
43.2004	0.990860000000	0.00261
43.2507	0.990830000000	0.00262
43.301	0.990810000000	0.00263
43.3508	0.990790000000	0.00263
43.4	0.990770000000	0.00263
43.45189	0.990740000000	0.00263
43.50001	0.990710000000	0.00264
43.55071	0.990680000000	0.00264
43.6012	0.990650000000	0.00265
43.64991	0.990630000000	0.00266
43.7018	0.990610000000	0.00267
43.7505	0.990590000000	0.00268
43.8008	0.990570000000	0.00268
43.8506	0.990540000000	0.00269
43.90089	0.990520000000	0.00269
43.9504	0.990500000000	0.0027
44.0014	0.990480000000	0.0027
44.0506	0.990450000000	0.00271
44.1003	0.990430000000	0.00272
44.1515	0.990400000000	0.00273
44.1999	0.990380000000	0.00273
44.2518	0.990360000000	0.00274
44.4031	0.990290000000	0.00275
44.5029	0.990240000000	0.00276
44.6009	0.990180000000	0.00277
44.7017	0.990130000000	0.00279
44.8025	0.990080000000	0.0028
44.90151	0.990030000000	0.00281
45.00319	0.989970000000	0.00283
45.1002	0.989920000000	0.00285
45.2048	0.989870000000	0.00287
45.3	0.989820000000	0.00288
45.40639	0.989760000000	0.00291
45.4978	0.989720000000	0.00292
45.60431	0.989660000000	0.00294
45.70041	0.989610000000	0.00296
45.80869	0.989550000000	0.00299
45.8992	0.989510000000	0.00301
46.0038	0.989450000000	0.00303
46.0989	0.989400000000	0.00305
46.2063	0.989350000000	0.00307
46.29869	0.989300000000	0.0031
46.40509	0.989250000000	0.00312
46.50029	0.989200000000	0.00315
46.60491	0.989150000000	0.00317
46.6991	0.989100000000	0.0032
46.8065	0.989050000000	0.00323
46.8969	0.989010000000	0.00325
47.0062	0.988960000000	0.00327
47.0986	0.988910000000	0.00329
47.2069	0.988860000000	0.00333
47.30021	0.988810000000	0.00335
47.4047	0.988760000000	0.00338
47.4999	0.988720000000	0.0034
47.60539	0.988670000000	0.00343
47.7006	0.988630000000	0.00345
47.8042	0.988580000000	0.00348
47.9031	0.988540000000	0.00351
47.9992	0.988500000000	0.00354
48.1048	0.988450000000	0.00357
48.20091	0.988410000000	0.00359
48.30361	0.988370000000	0.00362
48.39781	0.988330000000	0.00364
48.5061	0.988280000000	0.00367
48.59939	0.988240000000	0.00369
48.7087	0.988190000000	0.00372
48.79909	0.988150000000	0.00375
48.9056	0.988110000000	0.00377
48.9979	0.988070000000	0.0038
49.1053	0.988030000000	0.00382
49.20141	0.988000000000	0.00384
49.3013	0.987950000000	0.00386
49.40401	0.987910000000	0.00388
49.50099	0.987870000000	0.00391
49.60469	0.987830000000	0.00393
49.69699	0.987790000000	0.00395
49.80629	0.987740000000	0.00398
49.8986	0.987710000000	0.004
50.00601	0.987670000000	0.00402
50.0993	0.987620000000	0.00402
50.20479	0.987570000000	0.00406
50.29809	0.987540000000	0.00408
50.4074	0.987490000000	0.00409
50.4988	0.987450000000	0.00411
50.6071	0.987400000000	0.00414
50.6985	0.987370000000	0.00416
50.80591	0.987320000000	0.00418
50.8992	0.987280000000	0.00421
51.00939	0.987240000000	0.00422
51.0952	0.987190000000	0.00423
51.20921	0.987150000000	0.00426
51.29871	0.987110000000	0.00427
51.4042	0.987060000000	0.00429
51.4993	0.987010000000	0.00431
51.6068	0.986960000000	0.00433
51.6972	0.986920000000	0.00435
51.80551	0.986870000000	0.00437
51.8988	0.986830000000	0.00439
52.0109	0.986780000000	0.00441
52.0986	0.986730000000	0.00443
52.20781	0.986680000000	0.00445
52.2992	0.986640000000	0.00447
52.4095	0.986590000000	0.00449
52.499	0.986540000000	0.00451
52.6073	0.986490000000	0.00453
52.70059	0.986450000000	0.00454
52.80231	0.986400000000	0.00457
52.9041	0.986340000000	0.00459
53.00019	0.986290000000	0.00461
53.10189	0.986240000000	0.00463
53.20181	0.986190000000	0.00466
53.3026	0.986140000000	0.00469
53.4053	0.986090000000	0.00472
53.49759	0.986060000000	0.00474
53.606	0.986010000000	0.00476
53.69741	0.985960000000	0.00478
53.8095	0.985910000000	0.0048
53.89811	0.985860000000	0.00483
54.0074	0.985810000000	0.00485
54.09869	0.985770000000	0.00488
54.2052	0.985720000000	0.0049
54.3023	0.985680000000	0.00493
54.40211	0.985640000000	0.00495
54.50011	0.985590000000	0.00496
54.60661	0.985530000000	0.00498
54.697	0.985480000000	0.00501
54.8072	0.985430000000	0.00504
54.8986	0.985390000000	0.00506
55.00701	0.985340000000	0.00509
55.1012	0.985290000000	0.00511
55.20481	0.985250000000	0.00514
55.3038	0.985200000000	0.00516
55.39799	0.985160000000	0.00518
55.50729	0.985100000000	0.00521
55.5977	0.985060000000	0.00523
55.70889	0.985010000000	0.00525
55.79651	0.984970000000	0.00528
55.9058	0.984930000000	0.00531
56.0009	0.984890000000	0.00532
56.10079	0.984840000000	0.00535
56.20631	0.984790000000	0.00537
56.2977	0.984750000000	0.00539
56.40509	0.984700000000	0.00541
56.5003	0.984660000000	0.00543
56.6049	0.984610000000	0.00545
56.7019	0.984560000000	0.00547
56.80269	0.984520000000	0.00549
56.8988	0.984480000000	0.0055
57.00339	0.984430000000	0.00553
57.10421	0.984380000000	0.00554
57.20129	0.984330000000	0.00556
57.3039	0.984280000000	0.00557
57.39821	0.984230000000	0.00559
57.50651	0.984180000000	0.00562
57.60071	0.984130000000	0.00563
57.70059	0.984080000000	0.00565
57.80421	0.984030000000	0.00567
57.90131	0.983980000000	0.00569
58.00401	0.983930000000	0.0057
58.10189	0.983870000000	0.00572
58.2018	0.983820000000	0.00574
58.3007	0.983760000000	0.00575
58.40441	0.983710000000	0.00578
58.5005	0.983650000000	0.00579
58.60691	0.983600000000	0.00582
58.69741	0.983550000000	0.00584
58.80669	0.983490000000	0.00586
58.89899	0.983440000000	0.00588
59.00921	0.983380000000	0.0059
59.09691	0.983330000000	0.00591
59.2061	0.983270000000	0.00594
59.2975	0.983220000000	0.00596
59.4068	0.983150000000	0.00598
59.502	0.983100000000	0.006
59.59999	0.983050000000	0.00602
59.7017	0.982990000000	0.00604
59.80059	0.982930000000	0.00606
59.90521	0.982870000000	0.0061
60.0032	0.982820000000	0.00611
60.10309	0.982770000000	0.00614
60.20009	0.982710000000	0.00615
60.3009	0.982650000000	0.00618
60.4102	0.982590000000	0.0062
60.49689	0.982530000000	0.00622
60.60811	0.982470000000	0.00625
60.6976	0.982420000000	0.00626
60.80781	0.982350000000	0.00629
60.90109	0.982300000000	0.00632
60.9991	0.982250000000	0.00633
61.10459	0.982180000000	0.00635
61.19969	0.982120000000	0.00638
61.30621	0.982060000000	0.0064
61.3995	0.982000000000	0.00642
61.50779	0.981930000000	0.00644
61.59919	0.981880000000	0.00647
61.70569	0.981810000000	0.00649
61.80271	0.981750000000	0.00651
61.90259	0.981680000000	0.00654
62.00059	0.981620000000	0.00656
62.1023	0.981560000000	0.00659
62.20409	0.981490000000	0.00662
62.3039	0.981430000000	0.00664
62.40001	0.981360000000	0.00666
62.50089	0.981290000000	0.0067
62.6026	0.981230000000	0.00672
62.70249	0.981150000000	0.00675
62.80231	0.981080000000	0.00678
62.9022	0.981010000000	0.00682
62.99831	0.980950000000	0.00685
63.10948	0.980870000000	0.00689
63.19901	0.980810000000	0.00692
63.30922	0.980730000000	0.00696
63.39681	0.980680000000	0.007
63.508	0.980600000000	0.00704
63.5985	0.980550000000	0.0071
63.71151	0.980490000000	0.00712
63.7982	0.980430000000	0.00716
63.9047	0.980370000000	0.00719
64.00169	0.980300000000	0.00722
64.10252	0.980230000000	0.00727
64.2024	0.980170000000	0.00731
64.29849	0.980110000000	0.00735
64.40309	0.980050000000	0.00739
64.50291	0.979990000000	0.00744
64.6037	0.979940000000	0.00748
64.70171	0.979880000000	0.00752
64.80161	0.979820000000	0.00755
64.90429	0.979760000000	0.00757
64.99939	0.979690000000	0.00762
65.10968	0.979620000000	0.00767
65.1973	0.979560000000	0.00771
65.3075	0.979490000000	0.00776
65.39799	0.979440000000	0.0078
65.50542	0.979380000000	0.00785
65.6034	0.979320000000	0.00788
65.69761	0.979260000000	0.00793
65.80501	0.979200000000	0.00799
65.90011	0.979140000000	0.00803
66.00279	0.979080000000	0.00808
66.1027	0.979030000000	0.00813
66.1988	0.978980000000	0.00817
66.30621	0.978920000000	0.00822
66.3995	0.978870000000	0.00827
66.5107	0.978810000000	0.00832
66.5973	0.978770000000	0.00836
66.70849	0.978710000000	0.00841
66.79899	0.978650000000	0.00845
66.9054	0.978590000000	0.00851
66.99958	0.978540000000	0.00855
67.40851	0.978350000000	0.00879
67.60069	0.978290000000	0.00887
67.80799	0.978200000000	0.00896
68.00108	0.978130000000	0.00906
68.20462	0.978060000000	0.00913
68.4016	0.977980000000	0.0092
68.60501	0.977900000000	0.00927
68.80389	0.977820000000	0.00935
69.00451	0.977750000000	0.00941
69.2024	0.977660000000	0.00947
69.40679	0.977570000000	0.00954
69.59809	0.977500000000	0.0096
69.8101	0.977420000000	0.00966
69.9994	0.977330000000	0.00971
70.20758	0.977240000000	0.00977
70.40269	0.977150000000	0.00981
70.60431	0.977050000000	0.00987
70.80498	0.976960000000	0.00993
71.00001	0.976870000000	0.00997
71.20921	0.976750000000	0.01001
71.39849	0.976650000000	0.01006
71.60769	0.976540000000	0.01012
71.80268	0.976430000000	0.01017
71.99961	0.976310000000	0.01023
72.2097	0.976190000000	0.01029
72.39721	0.976080000000	0.01034
72.60639	0.975950000000	0.01042
72.80422	0.975840000000	0.01049
73.00398	0.975730000000	0.01056
73.20649	0.975610000000	0.01063
73.39779	0.975500000000	0.0107
73.6107	0.975380000000	0.01079
73.7963	0.975280000000	0.01086
74.01211	0.975170000000	0.01094
74.19579	0.975070000000	0.01101
74.41149	0.974960000000	0.0111
74.5981	0.974860000000	0.01117
74.8082	0.974760000000	0.01126
74.9994	0.974670000000	0.01133
75.20862	0.974570000000	0.01139
75.39889	0.974470000000	0.01148
75.60708	0.974380000000	0.01156
75.79928	0.974290000000	0.01163
76.00941	0.974200000000	0.0117
76.19968	0.974120000000	0.01177
76.41078	0.974030000000	0.01184
76.59828	0.973940000000	0.0119
76.8084	0.973850000000	0.01196
76.99868	0.973770000000	0.01202
77.20779	0.973680000000	0.01208
77.40189	0.973590000000	0.01213
77.60173	0.973500000000	0.01218
77.80709	0.973410000000	0.01223
78.00108	0.973320000000	0.01228
78.20842	0.973230000000	0.01234
78.39971	0.973150000000	0.01237
78.60688	0.973050000000	0.01241
78.80198	0.972950000000	0.01244
79.00258	0.972850000000	0.01248
79.20329	0.972750000000	0.01251
79.40589	0.972640000000	0.01255
79.60089	0.972530000000	0.01258
79.8101	0.972420000000	0.01261
79.99662	0.972300000000	0.01264
80.2143	0.972180000000	0.01269
80.3951	0.972080000000	0.01271
80.61093	0.971940000000	0.01274
80.79842	0.971830000000	0.01278
81.00853	0.971700000000	0.01282
81.20351	0.971570000000	0.01285
81.40232	0.971440000000	0.01288
81.60581	0.971310000000	0.01292
81.80271	0.971180000000	0.01295
82.00339	0.971040000000	0.01298
82.20308	0.970910000000	0.01302
82.40573	0.970770000000	0.01306
82.6036	0.970630000000	0.01309
82.80612	0.970480000000	0.01313
83.00492	0.970340000000	0.01317
83.20088	0.970190000000	0.0132
83.40809	0.970040000000	0.01325
83.60032	0.969890000000	0.01328
83.80572	0.969730000000	0.01332
84.00452	0.969570000000	0.01336
84.19951	0.969410000000	0.0134
84.40972	0.969230000000	0.01345
84.59898	0.969070000000	0.0135
84.8091	0.968890000000	0.01355
85.00039	0.968730000000	0.0136
85.20577	0.968540000000	0.01366
85.40551	0.968360000000	0.01373
85.59773	0.968200000000	0.0138
85.81249	0.968020000000	0.01386
85.99623	0.967850000000	0.01392
86.21287	0.967650000000	0.014
86.39568	0.967480000000	0.01407
86.61151	0.967280000000	0.01416
86.79711	0.967110000000	0.01424
87.00719	0.966920000000	0.01434
87.20117	0.966740000000	0.01444
87.40471	0.966560000000	0.01453
87.6045	0.966380000000	0.01464
87.80521	0.966200000000	0.01475
88.00489	0.966030000000	0.01486
88.20367	0.965870000000	0.01497
88.40153	0.965700000000	0.01507
88.60603	0.965520000000	0.01519
88.802	0.965360000000	0.01531
89.00357	0.965180000000	0.01542
89.20709	0.965010000000	0.01558
89.39928	0.964870000000	0.01571
89.61031	0.964700000000	0.01585
89.7969	0.964570000000	0.01598
90.01066	0.964420000000	0.01613
90.19821	0.964290000000	0.01625
90.40927	0.964160000000	0.01641
90.5996	0.964040000000	0.01653
90.80776	0.963920000000	0.01668
90.99811	0.963810000000	0.01681
91.21113	0.963700000000	0.01694
91.39852	0.963600000000	0.01705
91.60672	0.963490000000	0.01718
91.80458	0.963400000000	0.0173
92.00432	0.963310000000	0.01741
92.19938	0.963210000000	0.0175
92.41132	0.963110000000	0.01761
92.59697	0.963020000000	0.01769
92.81269	0.962900000000	0.01779
92.99738	0.962810000000	0.01789
93.21118	0.962720000000	0.01798
93.39873	0.962630000000	0.01805
93.60498	0.962520000000	0.01812
93.80292	0.962410000000	0.0182
94.00362	0.962300000000	0.01826
94.20433	0.962190000000	0.01834
94.40402	0.962070000000	0.01841
94.60471	0.961960000000	0.01847
94.80436	0.961840000000	0.01853
95.0013	0.961720000000	0.01859
95.20483	0.961590000000	0.01866
95.40461	0.961450000000	0.01871
95.60051	0.961310000000	0.01878
95.80883	0.961170000000	0.01885
96.0009	0.961040000000	0.01891
96.20919	0.960880000000	0.01898
96.39671	0.960740000000	0.01906
96.60958	0.960590000000	0.01912
96.79709	0.960450000000	0.01919
97.00908	0.960280000000	0.01928
97.20309	0.960140000000	0.01935
97.40294	0.959980000000	0.01943
97.60829	0.959830000000	0.01952
97.79762	0.959680000000	0.01959
98.01061	0.959510000000	0.01969
98.19714	0.959370000000	0.01978
98.41	0.959200000000	0.01987
98.60323	0.959060000000	0.01997
98.8029	0.958920000000	0.02006
99.00638	0.958770000000	0.02014
99.20244	0.958620000000	0.02023
99.40677	0.958460000000	0.02032
99.6009	0.958310000000	0.02041
99.8072	0.958150000000	0.0205
100.00129	0.958000000000	0.02061
100.2048	0.957830000000	0.02069
100.40271	0.957680000000	0.02083
100.60337	0.957540000000	0.02091
100.80778	0.957390000000	0.02103
101.00093	0.957250000000	0.02112
101.2063	0.957090000000	0.02123
101.40422	0.956950000000	0.02134
101.60199	0.956800000000	0.02142
101.80647	0.956650000000	0.02155
101.99676	0.956510000000	0.02166
102.21353	0.956360000000	0.02178
102.39723	0.956240000000	0.02189
102.61112	0.956120000000	0.02201
102.79863	0.956000000000	0.02209
103.00489	0.955860000000	0.0222
103.20561	0.955720000000	0.0223
103.40065	0.955600000000	0.0224
103.60603	0.955470000000	0.0225
103.80572	0.955350000000	0.02261
104.0026	0.955230000000	0.02269
104.20609	0.955100000000	0.02278
104.40019	0.954980000000	0.02288
104.60657	0.954860000000	0.02296
104.80162	0.954740000000	0.02305
105.00506	0.954610000000	0.02312
105.20482	0.954480000000	0.0232
105.40167	0.954350000000	0.02328
105.60808	0.954210000000	0.02335
105.79841	0.954100000000	0.02344
106.00945	0.953960000000	0.02349
106.19968	0.953820000000	0.02356
106.40612	0.953660000000	0.02363
106.60576	0.953530000000	0.02373
106.79988	0.953410000000	0.02378
107.00996	0.953250000000	0.02384
107.19935	0.953100000000	0.02391
107.41035	0.952940000000	0.02399
107.59977	0.952800000000	0.02406
107.80607	0.952650000000	0.02413
108.003	0.952510000000	0.0242
108.20282	0.952350000000	0.02426
108.40717	0.952190000000	0.02433
108.60031	0.952040000000	0.02438
108.80952	0.951860000000	0.02446
108.99892	0.951720000000	0.02453
109.20803	0.951540000000	0.02459
109.40403	0.951370000000	0.02468
109.599	0.951220000000	0.02475
109.80818	0.951050000000	0.0248
110.00128	0.950870000000	0.02488
110.20475	0.950710000000	0.02498
110.40553	0.950560000000	0.02502
110.60241	0.950380000000	0.0251
110.80782	0.950210000000	0.02516
110.9972	0.950030000000	0.02521
111.21006	0.949830000000	0.02531
111.40141	0.949660000000	0.02538
111.60488	0.949490000000	0.02547
111.80374	0.949310000000	0.02551
112.00251	0.949120000000	0.0256
112.20777	0.948930000000	0.02566
112.40003	0.948720000000	0.02573
112.60644	0.948470000000	0.02582
112.99828	0.948140000000	0.02617
113.10755	0.948090000000	0.0262
113.19708	0.948030000000	0.02624
113.30726	0.947950000000	0.02627
113.3997	0.947880000000	0.02631
113.50237	0.947810000000	0.02634
113.60033	0.947730000000	0.02637
113.70587	0.947640000000	0.02641
113.80095	0.947570000000	0.02645
113.91126	0.947470000000	0.02648
113.99703	0.947400000000	0.02651
114.1072	0.947310000000	0.02654
114.19863	0.947230000000	0.02658
114.30507	0.947140000000	0.02661
114.40116	0.947060000000	0.02664
114.50385	0.946970000000	0.02667
114.60281	0.946880000000	0.0267
114.69696	0.946790000000	0.02672
114.80529	0.946690000000	0.02676
114.89859	0.946610000000	0.02679
115.00506	0.946510000000	0.02682
115.1003	0.946420000000	0.02685
115.20479	0.946320000000	0.02689
115.30003	0.946230000000	0.02692
115.40274	0.946130000000	0.02695
115.5025	0.946040000000	0.02698
115.60244	0.945950000000	0.02701
115.70126	0.945850000000	0.02704
115.80587	0.945750000000	0.02706
115.89821	0.945650000000	0.0271
116.01034	0.945540000000	0.02714
116.10182	0.945450000000	0.02716
116.20541	0.945350000000	0.02719
116.30057	0.945250000000	0.02722
116.40321	0.945150000000	0.02726
116.50307	0.945050000000	0.02728
116.60015	0.944950000000	0.02732
116.7076	0.944850000000	0.02735
116.79896	0.944750000000	0.02738
116.91295	0.944640000000	0.02741
116.99868	0.944570000000	0.02744
117.2116	0.944330000000	0.02743
117.29831	0.944220000000	0.02748
117.40761	0.944090000000	0.0275
117.49796	0.943980000000	0.02753
117.6064	0.943850000000	0.02756
117.69873	0.943750000000	0.0276
117.80419	0.943630000000	0.02762
117.90412	0.943500000000	0.02764
117.99916	0.943380000000	0.02769
118.10482	0.943250000000	0.02773
118.19985	0.943140000000	0.02776
118.3017	0.943010000000	0.02778
118.40338	0.942880000000	0.02783
118.49764	0.942770000000	0.02787
118.61066	0.942640000000	0.02792
118.69935	0.942530000000	0.02794
118.80945	0.942390000000	0.02798
118.89901	0.942280000000	0.02801
119.00549	0.942140000000	0.02805
119.09865	0.942020000000	0.02809
119.20515	0.941880000000	0.02812
119.30127	0.941750000000	0.02816
119.40398	0.941620000000	0.02821
119.49824	0.941490000000	0.02825
119.6066	0.941350000000	0.02829
119.69794	0.941230000000	0.02833
119.80527	0.941080000000	0.02837
119.89773	0.940960000000	0.02843
120.00705	0.940820000000	0.02847
120.10028	0.940690000000	0.02851
120.2095	0.940530000000	0.02856
120.29896	0.940410000000	0.02861
120.40457	0.940260000000	0.02866
120.50158	0.940140000000	0.02872
120.59957	0.939980000000	0.02872
120.70606	0.939810000000	0.02882
120.79933	0.939690000000	0.02886
120.90476	0.939530000000	0.02893
121.00187	0.939390000000	0.02899
121.10174	0.939260000000	0.02907
121.20544	0.939120000000	0.02911
121.29675	0.938980000000	0.02917
121.40983	0.938820000000	0.02924
121.4993	0.938700000000	0.02929
121.60488	0.938540000000	0.02936
121.69906	0.938400000000	0.02942
121.80463	0.938250000000	0.02949
121.90163	0.938120000000	0.02956
121.99963	0.937960000000	0.02959
122.10705	0.937800000000	0.02971
122.19839	0.937670000000	0.02975
122.30676	0.937500000000	0.02985
122.39816	0.937370000000	0.02992
122.50556	0.937210000000	0.03
122.60174	0.937070000000	0.03007
122.70148	0.936910000000	0.03015
122.80235	0.936790000000	0.03027
122.90034	0.936660000000	0.03029
123.00301	0.936480000000	0.03037
123.10193	0.936330000000	0.03048
123.20456	0.936190000000	0.03057
123.2989	0.936050000000	0.03064
123.40334	0.935900000000	0.03074
123.49946	0.935750000000	0.0308
123.60794	0.935580000000	0.03093
123.69735	0.935450000000	0.03101
123.80765	0.935300000000	0.03112
123.89809	0.935170000000	0.03121
124.00925	0.935020000000	0.03131
124.09974	0.934890000000	0.03138
124.20429	0.934710000000	0.03147
124.30042	0.934580000000	0.03162
124.40494	0.934450000000	0.03171
124.501	0.934310000000	0.03179
124.60285	0.934160000000	0.03191
124.69985	0.934030000000	0.03201
124.80354	0.933880000000	0.03212
124.89959	0.933750000000	0.03223
125.00978	0.933610000000	0.03235
125.09744	0.933480000000	0.03243
125.2095	0.933330000000	0.03257
125.29808	0.933210000000	0.03265
125.40643	0.933060000000	0.03278
125.50075	0.932940000000	0.03289
125.60144	0.932800000000	0.033
125.70421	0.932660000000	0.03313
125.79923	0.932530000000	0.03323
125.90577	0.932400000000	0.03339
125.99815	0.932290000000	0.03347
126.10645	0.932140000000	0.0336
126.20066	0.932020000000	0.03372
126.30531	0.931890000000	0.03385
126.40137	0.931770000000	0.03396
126.50403	0.931650000000	0.03409
126.59923	0.931530000000	0.0342
126.70571	0.931400000000	0.03434
126.80083	0.931290000000	0.03447
126.90453	0.931170000000	0.03458
126.99955	0.931060000000	0.0347
127.10423	0.930920000000	0.03481
127.19942	0.930800000000	0.03496
127.30861	0.930690000000	0.03511
127.39822	0.930590000000	0.03522
127.50657	0.930470000000	0.03535
127.5979	0.930370000000	0.03547
127.7062	0.930250000000	0.03561
127.79953	0.930150000000	0.03573
127.90606	0.930030000000	0.03586
127.99836	0.929930000000	0.03599
128.10575	0.929810000000	0.03613
128.199	0.929720000000	0.03627
128.30726	0.929620000000	0.0364
128.39774	0.929520000000	0.03652
128.50527	0.929420000000	0.03667
128.59937	0.929330000000	0.03677
128.70778	0.929220000000	0.03693
128.7991	0.929140000000	0.03703
128.90475	0.929030000000	0.03718
128.99984	0.928950000000	0.03731
129.10341	0.928850000000	0.03744
129.20243	0.928760000000	0.03757
129.30133	0.928670000000	0.0377
129.40119	0.928580000000	0.03783
129.50202	0.928490000000	0.03796
129.60369	0.928400000000	0.0381
129.69886	0.928320000000	0.03822
129.80817	0.928220000000	0.03836
129.89861	0.928130000000	0.03848
130.00131	0.928050000000	0.03865
130.50076	0.927710000000	0.03929
131.01513	0.927360000000	0.03991
131.49925	0.927050000000	0.0405
132.01465	0.926730000000	0.04107
132.49898	0.926450000000	0.04161
133.01527	0.926170000000	0.04216
133.49865	0.925910000000	0.04262
134.01495	0.925640000000	0.04309
134.50096	0.925380000000	0.04352
135.0136	0.925100000000	0.04393
135.50067	0.924830000000	0.0443
136.01321	0.924540000000	0.04465
136.50498	0.924230000000	0.04496
137.01092	0.923900000000	0.04527
137.50462	0.923560000000	0.04554
138.01156	0.923180000000	0.04581
138.50414	0.922790000000	0.04606
139.01023	0.922360000000	0.0463
139.50669	0.921910000000	0.04653
140.00987	0.921430000000	0.04677
140.50634	0.920930000000	0.04699
141.00843	0.920380000000	0.04719
141.50782	0.919800000000	0.04746
142.00621	0.919230000000	0.0477
142.50926	0.918610000000	0.04796
143.00682	0.917980000000	0.04821
143.50804	0.917320000000	0.04849
144.00642	0.916640000000	0.04879
144.51131	0.915940000000	0.04908
145.00703	0.915220000000	0.04939
145.50633	0.914480000000	0.04973
146.00943	0.913720000000	0.05007
146.50771	0.912950000000	0.05045
147.00713	0.912160000000	0.05083
147.50559	0.911360000000	0.05123
148.0115	0.910520000000	0.05167
148.50524	0.909700000000	0.05211
149.00837	0.908850000000	0.05258
149.50951	0.907980000000	0.05308
150.00696	0.907110000000	0.05361
150.50736	0.906230000000	0.05415
151.00578	0.905350000000	0.05473
151.51066	0.904450000000	0.05534
152.00345	0.903570000000	0.05595
152.51222	0.902660000000	0.05662
153.00496	0.901780000000	0.0573
153.50982	0.900870000000	0.05801
154.00559	0.900000000000	0.05875
154.51246	0.899100000000	0.05952
155.00428	0.898200000000	0.06029
155.51015	0.897300000000	0.06111
156.00756	0.896500000000	0.06194
156.50875	0.895600000000	0.06279
157.00622	0.894800000000	0.06367
157.50846	0.893900000000	0.06457
158.00768	0.893100000000	0.06547
158.50703	0.892200000000	0.06642
159.00629	0.891400000000	0.06737
159.5087	0.890600000000	0.06832
160.0079	0.889800000000	0.06931
160.50732	0.889000000000	0.07035
161.00945	0.888200000000	0.07138
161.5059	0.887400000000	0.07241
162.00711	0.886600000000	0.0735
162.50845	0.885800000000	0.07461
163.00777	0.885100000000	0.07575
163.50715	0.884300000000	0.07688
164.00916	0.883600000000	0.07807
164.50771	0.882900000000	0.07927
165.00887	0.882200000000	0.08054
165.50536	0.881500000000	0.08179
166.0104	0.880800000000	0.08312
166.50399	0.880200000000	0.0844
167.00998	0.879600000000	0.08574
167.5057	0.879100000000	0.08707
168.00869	0.878500000000	0.0885
168.50602	0.878100000000	0.08988
169.00837	0.877700000000	0.09128
169.50862	0.877300000000	0.09265
170.00695	0.876900000000	0.094
170.50916	0.876500000000	0.09541
171.0075	0.876200000000	0.09674
171.50687	0.875800000000	0.09813
172.0366	0.875600000000	0.09979
173.00089	0.875300000000	0.1024
174.03587	0.875100000000	0.1051
174.99757	0.874900000000	0.1075
176.03266	0.874700000000	0.1101
176.99917	0.874600000000	0.1125
178.02721	0.874500000000	0.1149
179.00082	0.874400000000	0.1172
180.03558	0.874300000000	0.1196
180.99751	0.874100000000	0.1218
182.03016	0.874000000000	0.1242
182.99657	0.873900000000	0.1264
184.03391	0.873900000000	0.1288
184.99831	0.873800000000	0.131
186.03313	0.873800000000	0.1334
186.99524	0.873700000000	0.1357
188.03462	0.873700000000	0.1381
188.99656	0.873800000000	0.1404
190.02924	0.873800000000	0.1428
191.00057	0.873900000000	0.1451
192.0354	0.874000000000	0.1476
192.99254	0.874100000000	0.1499
194.03456	0.874400000000	0.1524
194.9989	0.874600000000	0.1548
196.03609	0.874900000000	0.1572
196.99794	0.875100000000	0.1595
198.03062	0.875500000000	0.1621
199.00197	0.875800000000	0.1644
200.03227	0.876200000000	0.1669
200.99864	0.876700000000	0.1692
202.03133	0.877100000000	0.1718
202.99787	0.877600000000	0.1742
204.03514	0.878100000000	0.1768
204.99931	0.878700000000	0.1792
206.03185	0.879300000000	0.1818
207.0057	0.879900000000	0.1844
208.0216	0.880600000000	0.187
209.00488	0.881400000000	0.1897
210.02809	0.882400000000	0.1923
211.00174	0.883300000000	0.195
212.0247	0.884300000000	0.1978
213.00785	0.885500000000	0.2005
214.0286	0.886800000000	0.2034
214.99989	0.888200000000	0.206
216.02782	0.889800000000	0.2088
217.00143	0.891300000000	0.2114
218.02717	0.893100000000	0.2141
219.00538	0.894900000000	0.2168
220.02637	0.896900000000	0.2192
221.00452	0.899000000000	0.222
222.0252	0.901580000000	0.2245
223.00399	0.904100000000	0.2267
224.02465	0.906760000000	0.2289
225.0122	0.909660000000	0.2311
226.02375	0.912700000000	0.2327
227.0091	0.915890000000	0.2345
228.01105	0.919320000000	0.2354
229.02019	0.922370000000	0.2359
230.01013	0.925170000000	0.2364
231.01469	0.927860000000	0.2366
232.01895	0.930300000000	0.2368
233.01622	0.932570000000	0.2368
234.01325	0.934730000000	0.2368
235.00817	0.936520000000	0.2363
236.01967	0.937820000000	0.2361
237.01907	0.939000000000	0.2363
238.00915	0.940090000000	0.2363
239.02089	0.940800000000	0.2364
240.00829	0.941420000000	0.2371
241.02683	0.941910000000	0.2376
242.00775	0.942110000000	0.2387
243.01907	0.942340000000	0.2402
244.00911	0.942760000000	0.2424
245.0208	0.943360000000	0.2448
246.01065	0.944570000000	0.2481
247.01738	0.946520000000	0.2511
248.01453	0.948950000000	0.2543
249.01676	0.952160000000	0.2574
250.01855	0.955720000000	0.2598
251.00404	0.959410000000	0.2622
252.02704	0.963920000000	0.2645
253.00316	0.968400000000	0.2655
254.03319	0.972970000000	0.2666
254.99976	0.977260000000	0.267
256.03028	0.981480000000	0.2673
256.99936	0.985430000000	0.2677
258.03432	0.989570000000	0.2677
258.99809	0.993230000000	0.2679
260.03561	0.997630000000	0.2686
260.99959	1.00178000000	0.2685
262.03496	1.00621000000	0.2691
262.99432	1.01097000000	0.2696
264.0338	1.01676000000	0.2699
264.99825	1.02271000000	0.2698
266.0354	1.02938000000	0.2688
266.9973	1.03582000000	0.2677
268.0299	1.04303000000	0.2656
268.99639	1.05039000000	0.2634
270.03866	1.05794000000	0.2586
270.99779	1.06488000000	0.2553
272.03059	1.07303000000	0.2494
272.99975	1.08009000000	0.2425
274.03457	1.08666000000	0.2339
274.99673	1.09189000000	0.2252
276.02895	1.09650000000	0.2149
277.00519	1.09925000000	0.2038
278.02826	1.10020000000	0.1926
279.00177	1.09981000000	0.1821
280.02701	1.09777000000	0.1713
281.00568	1.09448000000	0.162
282.02199	1.09007000000	0.1535
283.0095	1.08522000000	0.1467
284.01827	1.08047000000	0.1412
285.01329	1.07617000000	0.1364
286.01332	1.07235000000	0.1324
287.01973	1.06915000000	0.1284
288.01184	1.06645000000	0.1244
289.02093	1.06393000000	0.1198
290.00185	1.06131000000	0.1147
291.03248	1.05800000000	0.109
291.99617	1.05418000000	0.1035
293.03619	1.04909000000	0.09755
293.99788	1.04346000000	0.09251
295.03259	1.03663000000	0.08795
295.99685	1.02980000000	0.08467
297.03004	1.02233000000	0.08225
298.00098	1.01545000000	0.08108
299.0338	1.00870000000	0.0807
300.00048	1.00295000000	0.08081
301.03043	0.997370000000	0.0812
301.99684	0.992500000000	0.08168
303.0339	0.987650000000	0.08243
304.00281	0.983470000000	0.08317
305.02894	0.979300000000	0.08398
306.00009	0.975550000000	0.08478
307.02762	0.971790000000	0.0857
308.00391	0.968420000000	0.08655
309.018	0.965060000000	0.08746
310.00778	0.961920000000	0.08836
311.02186	0.958860000000	0.08929
312.01433	0.955980000000	0.09017
313.01632	0.953170000000	0.09107
314.00886	0.950480000000	0.09192
315.01972	0.947810000000	0.09279
316.01938	0.945250000000	0.09368
317.01001	0.942820000000	0.09453
318.0191	0.940390000000	0.09535
319.0133	0.938030000000	0.09617
320.01291	0.935730000000	0.097
321.01547	0.933480000000	0.09779
322.01681	0.931260000000	0.09858
323.01179	0.929090000000	0.09935
324.02564	0.926920000000	0.1001
324.99902	0.924840000000	0.1008
326.03226	0.922640000000	0.1017
326.99877	0.920710000000	0.1025
328.02656	0.918670000000	0.1032
329.0067	0.916670000000	0.1038
330.02521	0.914620000000	0.1046
330.99967	0.912700000000	0.1053
332.03146	0.910680000000	0.1061
333.00083	0.908800000000	0.1068
334.02896	0.906830000000	0.1075
334.99737	0.904980000000	0.1082
336.03241	0.902990000000	0.1089
336.99875	0.901150000000	0.1096
338.03424	0.899200000000	0.1103
338.99824	0.897400000000	0.111
340.02836	0.895400000000	0.1117
341.00003	0.893600000000	0.1124
342.02727	0.891700000000	0.1132
343.00377	0.889900000000	0.1139
344.02404	0.888000000000	0.1146
345.01199	0.886100000000	0.1152
346.02398	0.884300000000	0.1159
347.00211	0.882400000000	0.1167
348.02778	0.880500000000	0.1173
349.00352	0.878600000000	0.118
350.0223	0.876700000000	0.1188
351.00928	0.874800000000	0.1195
352.02383	0.872900000000	0.1203
353.00907	0.871100000000	0.121
354.01299	0.869200000000	0.1218
355.01552	0.867200000000	0.1226
356.0217	0.865300000000	0.1234
357.00995	0.863400000000	0.1242
358.02128	0.861400000000	0.125
359.00612	0.859500000000	0.1258
360.02044	0.857600000000	0.1267
361.00056	0.855700000000	0.1276
362.0336	0.853700000000	0.1285
362.99816	0.851800000000	0.1294
364.03306	0.849800000000	0.1303
364.9965	0.848000000000	0.1312
366.03635	0.845900000000	0.1322
366.99849	0.844100000000	0.1332
368.03341	0.842100000000	0.1342
368.9995	0.840300000000	0.1352
370.03029	0.838300000000	0.1362
370.99913	0.836400000000	0.1372
372.0311	0.834400000000	0.1382
373.00036	0.832500000000	0.1393
374.03335	0.830600000000	0.1404
375.00174	0.828700000000	0.1415
376.02305	0.826700000000	0.1427
377.00408	0.824900000000	0.1437
378.03173	0.822900000000	0.1449
378.99779	0.821000000000	0.1461
380.03286	0.819100000000	0.1473
380.99748	0.817300000000	0.1485
382.0341	0.815300000000	0.1497
382.99709	0.813500000000	0.1509
384.03154	0.811600000000	0.1522
385.00225	0.809700000000	0.1534
386.03076	0.807800000000	0.1547
386.99711	0.806000000000	0.1559
388.03025	0.804100000000	0.1573
389.00543	0.802300000000	0.1585
390.02233	0.800400000000	0.1599
391.0125	0.798500000000	0.1612
392.01639	0.796600000000	0.1627
393.02046	0.794800000000	0.1641
394.00089	0.793000000000	0.1654
395.02649	0.791100000000	0.1669
396.01191	0.789300000000	0.1684
397.01623	0.787600000000	0.1698
398.01928	0.785800000000	0.1712
399.01328	0.784000000000	0.1726
400.00839	0.782200000000	0.1742
401.02404	0.780500000000	0.1756
402.00705	0.778700000000	0.1771
403.02371	0.777000000000	0.1785
404.00735	0.775200000000	0.18
405.02491	0.773300000000	0.1815
406.00107	0.771500000000	0.1831
407.03138	0.769800000000	0.1847
407.99979	0.768000000000	0.186
409.02544	0.766100000000	0.1879
410.00202	0.764500000000	0.1894
411.03232	0.762700000000	0.191
411.99798	0.761100000000	0.1926
413.03147	0.759300000000	0.1941
413.99826	0.757500000000	0.1958
415.03488	0.755800000000	0.1975
415.99434	0.754200000000	0.1992
417.03678	0.752400000000	0.2007
417.99848	0.750700000000	0.2023
419.03542	0.749000000000	0.2042
419.99783	0.747400000000	0.2055
421.03472	0.745500000000	0.2074
421.99917	0.743800000000	0.2088
423.03154	0.742000000000	0.2108
423.99792	0.740300000000	0.2122
425.03137	0.738200000000	0.214
425.99813	0.736700000000	0.216
427.03695	0.734800000000	0.2174
427.99662	0.732900000000	0.2194
429.03186	0.731000000000	0.2213
429.99903	0.729300000000	0.2231
431.035	0.727400000000	0.225
431.99468	0.725700000000	0.227
433.02971	0.723900000000	0.2289
434.00134	0.722200000000	0.2308
435.02618	0.720400000000	0.2326
436.00526	0.718500000000	0.2345
437.02881	0.716300000000	0.2364
438.00456	0.714500000000	0.239
439.02043	0.712900000000	0.241
440.00823	0.711100000000	0.243
441.02402	0.709100000000	0.2451
442.00511	0.707300000000	0.2476
443.02064	0.705600000000	0.2497
444.01064	0.703900000000	0.252
445.02265	0.702100000000	0.2542
446.00077	0.700400000000	0.2565
447.02671	0.698500000000	0.2586
448.00882	0.696300000000	0.2608
449.02126	0.694500000000	0.2643
450.00889	0.693500000000	0.2665
451.0222	0.691400000000	0.268
452.01043	0.689000000000	0.2711
453.01954	0.687300000000	0.2741
454.00657	0.685800000000	0.277
455.02296	0.683900000000	0.2797
456.007	0.682800000000	0.2835
457.02395	0.681900000000	0.2855
458.00484	0.680100000000	0.2877
459.02563	0.678200000000	0.2909
459.99978	0.677000000000	0.294
461.02778	0.675200000000	0.2962
462.00184	0.673300000000	0.2999
463.0198	0.672700000000	0.304
464.01446	0.671800000000	0.3058
465.02387	0.670100000000	0.309
466.00265	0.669000000000	0.3124
467.0225	0.667600000000	0.3149
468.01149	0.666600000000	0.3191
469.01709	0.665900000000	0.3215
470.01278	0.664300000000	0.3248
471.02164	0.664300000000	0.3297
472.00429	0.664200000000	0.3305
473.02534	0.662100000000	0.3332
474.00189	0.660700000000	0.3369
475.02979	0.659500000000	0.3401
475.99819	0.658300000000	0.344
477.03294	0.658300000000	0.3484
477.99663	0.657100000000	0.3499
479.03084	0.656700000000	0.3562
479.99706	0.657200000000	0.3574
481.03062	0.654800000000	0.3599
481.99931	0.653800000000	0.3662
483.03588	0.653900000000	0.3694
483.99566	0.654100000000	0.3744
485.03136	0.654800000000	0.3775
485.99909	0.654000000000	0.3806
487.02808	0.655100000000	0.3873
488.00957	0.657400000000	0.3889
489.01624	0.655800000000	0.39
490.01739	0.656200000000	0.3984
491.01098	0.661000000000	0.4013
492.02032	0.658600000000	0.3965
493.01225	0.656300000000	0.4083
494.02197	0.660700000000	0.4125
495.00619	0.664100000000	0.4156
539.043	0.690000000000	0.48
551.022	0.700000000000	0.5
560.995	0.710000000000	0.52
568.716	0.720000000000	0.54
579.346	0.730000000000	0.56
590.381	0.740000000000	0.58
598.937	0.740000000000	0.6
610.739	0.750000000000	0.62
619.9	0.770000000000	0.64
629.34	0.780000000000	0.65
639.072	0.800000000000	0.67
649.11	0.820000000000	0.68
659.468	0.830000000000	0.68
670.162	0.840000000000	0.69
681.209	0.850000000000	0.7
688.778	0.870000000000	0.7
700.452	0.870000000000	0.71
708.457	0.880000000000	0.72
720.814	0.890000000000	0.72
729.294	0.900000000000	0.73
737.976	0.900000000000	0.74
751.394	0.910000000000	0.75
760.614	0.920000000000	0.76
770.062	0.920000000000	0.77
789.682	0.950000000000	0.79
799.871	0.960000000000	0.8
810.327	0.970000000000	0.8
832.081	1.00000000000	0.82
837.703	1.01000000000	0.82
849.178	1.03000000000	0.82
866.993	1.06000000000	0.82
891.942	1.09000000000	0.82
898.406	1.10000000000	0.82
918.37	1.12000000000	0.8
932.18	1.13000000000	0.8
946.412	1.15000000000	0.77
968.594	1.15000000000	0.75
991.84	1.15000000000	0.73
1007.97	1.14000000000	0.71
1033.17	1.13000000000	0.7
1059.66	1.10000000000	0.69
1078.09	1.09000000000	0.69
1097.17	1.07000000000	0.69
1116.94	1.05000000000	0.69
1147.96	1.03000000000	0.7
1180.76	1.01000000000	0.72
1203.69	1.00000000000	0.72
1239.8	0.980000000000	0.73
1270.29	0.950000000000	0.73
1299.58	0.920000000000	0.74
1340.32	0.860000000000	0.77
1369.94	0.830000000000	0.81
1389.91	0.810000000000	0.83
1420.16	0.780000000000	0.87
1439.95	0.760000000000	0.89
1460.31	0.740000000000	0.92
1490.14	0.720000000000	0.97
1510.11	0.710000000000	1
1530.62	0.690000000000	1.04
1549.75	0.680000000000	1.07
1569.37	0.680000000000	1.11
1589.49	0.670000000000	1.15
1610.13	0.670000000000	1.19
1629.17	0.660000000000	1.23
1648.67	0.670000000000	1.27
1679.95	0.690000000000	1.33
1700.69	0.700000000000	1.36
1719.56	0.710000000000	1.39
1738.85	0.720000000000	1.42
1768.62	0.740000000000	1.45
1799.42	0.760000000000	1.49
1820.56	0.750000000000	1.51
1850.45	0.780000000000	1.57
1878.48	0.800000000000	1.59
1910.32	0.820000000000	1.63
1940.22	0.850000000000	1.66
1971.07	0.880000000000	1.68
1999.68	0.890000000000	1.69
2029.13	0.920000000000	1.72
2069.78	0.940000000000	1.73
2101.36	0.960000000000	1.73
2141.28	0.970000000000	1.74
2171.28	0.970000000000	1.75
2209.98	0.950000000000	1.74
2250.09	0.940000000000	1.76
2300.19	0.930000000000	1.8
2339.25	0.900000000000	1.83
2379.65	0.870000000000	1.87
2430.98	0.860000000000	1.94
2479.6	0.850000000000	2.01
2530.2	0.860000000000	2.07
2582.92	0.860000000000	2.13
2637.87	0.860000000000	2.21
2695.22	0.880000000000	2.28
2755.11	0.890000000000	2.35
2817.73	0.900000000000	2.42
2869.91	0.910000000000	2.49
2937.91	0.940000000000	2.58
3001.94	0.980000000000	2.67
3076.43	1.02000000000	2.76
3162.76	1.06000000000	2.85
3237.08	1.12000000000	2.95
3332.8	1.18000000000	3.04
3415.43	1.26000000000	3.12
3512.18	1.33000000000	3.18
3625.15	1.39000000000	3.24
3723.12	1.43000000000	3.31
3850.31	1.44000000000	3.4
3961.02	1.48000000000	3.54
4091.75	1.54000000000	3.71
4245.89	1.65000000000	3.89
4380.92	1.80000000000	4.06
4558.09	1.99000000000	4.22
4714.07	2.22000000000	4.36
4900.4	2.49000000000	4.44
5123.14	2.75000000000	4.46
5321.03	2.98000000000	4.45
5584.68	3.18000000000	4.41
5820.66	3.34000000000	4.38
6107.39	3.48000000000	4.36
7004.52	3.84000000000	4.37
8156.58	4.23000000000	4.34
8265.33	4.27000000000	4.33
8491.78	4.31000000000	4.32
8609.72	4.33000000000	4.32
8855.71	4.38000000000	4.31
9116.18	4.42000000000	4.3
9392.42	4.47000000000	4.29
9685.94	4.49000000000	4.28
9998.39	4.50000000000	4.28
10331.7	4.52000000000	4.29
10687.9	4.53000000000	4.3
11069.6	4.53000000000	4.31
11479.6	4.53000000000	4.34
11921.2	4.51000000000	4.36
12398	4.47000000000	4.43
12914.6	4.47000000000	4.5
13476.1	4.45000000000	4.56
13775.6	4.43000000000	4.6
14416.3	4.35000000000	4.66
15119.5	4.24000000000	4.81
15894.9	4.13000000000	5.03
16754.1	4.06000000000	5.3
17711.4	4.01000000000	5.59
18784.8	3.96000000000	5.95
19996.8	4.01000000000	6.31
21375.9	4.01000000000	6.65
22959.3	3.92000000000	7.06
24796	3.83000000000	7.58
26952.2	3.72000000000	8.2
29519	3.47000000000	8.97
