;  Optical constants for polcrystaline Cr
; 
;   taken from:
;
;   'Handbook of Optical Constants of Solids II', Ed. by Edward D. Palik,
;   Academic Press, Inc., 1991.
;   
;    Lambda (A)            n            k
;-----------------------------------------
       1.23980      0.999986   9.71000e-07
       1.29836      0.999985   1.15000e-06
       1.35988      0.999983   1.37000e-06
       1.42408      0.999982   1.62000e-06
       1.49140      0.999980   1.92000e-06
       1.56205      0.999978   2.27000e-06
       1.63584      0.999976   2.69000e-06
       1.71314      0.999974   3.17000e-06
       1.79421      0.999972   3.74000e-06
       1.87905      0.999970   4.40000e-06
       1.96794      0.999969   5.17000e-06
       2.01397      0.999968   5.60000e-06
       2.06118      0.999972   6.06000e-06
       2.10922      0.999966   8.00000e-07
       2.15843      0.999963   8.71000e-07
       2.20880      0.999961   9.49000e-07
       2.26076      0.999959   1.03000e-06
       2.36739      0.999954   1.23000e-06
       2.47960      0.999949   1.46000e-06
       2.59644      0.999943   1.73000e-06
       2.71946      0.999937   2.05000e-06
       2.84815      0.999931   2.44000e-06
       2.98244      0.999924   2.90000e-06
       3.12371      0.999916   3.45000e-06
       3.27124      0.999908   4.10000e-06
       3.42581      0.999898   4.87000e-06
       3.58842      0.999888   5.80000e-06
       3.75811      0.999877   6.89000e-06
       3.93587      0.999865   8.20000e-06
       4.12168      0.999851   9.75000e-06
       4.31685      0.999836   1.16000e-05
       4.52152      0.999820   1.38000e-05
       4.73387      0.999802   1.64000e-05
       4.95920      0.999782   1.95000e-05
       5.19397      0.999760   2.32000e-05
       5.43772      0.999737   2.75000e-05
       5.69499      0.999711   3.27000e-05
       5.96631      0.999682   3.88000e-05
       6.24584      0.999651   4.60000e-05
       6.54248      0.999616   5.45000e-05
       6.85351      0.999579   6.46000e-05
       7.17477      0.999538   7.65000e-05
       7.51394      0.999493   9.05000e-05
       7.87175      0.999445   0.000107000
       8.24335      0.999392   0.000126000
       8.63371      0.999335   0.000149000
       9.04303      0.999273   0.000175000
       9.47135      0.999206   0.000206000
       9.91840      0.999133   0.000243000
       10.3836      0.999055   0.000285000
       10.8754      0.998970   0.000334000
       11.3952      0.998880   0.000393000
       11.9326      0.998790   0.000461000
       12.4942      0.998690   0.000542000
       13.0850      0.998590   0.000639000
       13.7040      0.998490   0.000748000
       14.3512      0.998390   0.000883000
       15.0297      0.998310    0.00104000
       15.7395      0.998250    0.00120000
       16.4845      0.998200    0.00138000
       16.8703      0.998190    0.00148000
       17.2650      0.998200    0.00159000
       17.6685      0.998270    0.00171000
       18.0808      0.998280    0.00162000
       18.5045      0.998220    0.00173000
       18.9369      0.998220    0.00184000
       19.3779      0.998240    0.00197000
       20.2946      0.998460    0.00233000
       20.7706      0.998790    0.00255000
       21.2549      0.999636    0.00278000
       21.7509       1.00016   0.000341000
       22.2585      0.999117   0.000368000
       22.7821      0.998620   0.000397000
       23.3133      0.998280   0.000427000
       23.8561      0.998000   0.000458000
       24.4151      0.997750   0.000491000
       25.5682      0.997280   0.000563000
       26.7775      0.996830   0.000645000
       28.0434      0.996380   0.000737000
       29.3722      0.995900   0.000842000
       30.7643      0.995380   0.000971000
       32.2193      0.994840    0.00112000
       33.7361      0.994260    0.00131000
       35.3320      0.993650    0.00153000
       37.0090      0.993010    0.00176000
       38.7559      0.992320    0.00202000
       40.5827      0.991570    0.00231000
       42.5026      0.990780    0.00264000
       44.5171      0.989900    0.00300000
       46.6266      0.989000    0.00339000
       48.8302      0.988000    0.00383000
       51.1258      0.987000    0.00432000
       53.5551      0.985800    0.00487000
       56.0742      0.984600    0.00549000
       58.7305      0.983300    0.00615000
       61.5285      0.981800    0.00686000
       64.4387      0.980200    0.00766000
       67.4905      0.978500    0.00863000
       70.6439      0.976700    0.00977000
       74.0179      0.974900     0.0111000
       77.4875      0.973000     0.0123000
       81.1919      0.971000     0.0136000
       85.0343      0.968700     0.0151000
       89.0022      0.966200     0.0167000
       93.2180      0.963700     0.0186000
       97.6220      0.961100     0.0205000
       102.294      0.958300     0.0225000
       107.064      0.955300     0.0245000
       112.199      0.951800     0.0264000
       117.517      0.947600     0.0288000
       122.996      0.943100     0.0315000
       128.851      0.938000     0.0348000
       134.937      0.932600     0.0388000
       141.320      0.927000     0.0434000
       148.000      0.920900     0.0484000
       154.994      0.913900     0.0543000
       158.623      0.910400     0.0579000
       162.341      0.906800     0.0617000
       166.126      0.903000     0.0658000
       170.022      0.899000     0.0708000
       173.983      0.895400     0.0762000
       178.055      0.891800     0.0821000
       182.216      0.888600     0.0891000
       190.827      0.885000      0.104000
       199.839      0.884100      0.120000
       209.284      0.888200      0.136000
       219.201      0.897000      0.150000
       229.550      0.907700      0.157000
       240.411      0.920700      0.159000
       420.271      0.780000      0.210000
       430.486      0.770000      0.220000
       439.645      0.750000      0.230000
       449.203      0.730000      0.250000
       459.185      0.720000      0.260000
       469.621      0.710000      0.280000
       480.543      0.700000      0.310000
       490.040      0.680000      0.330000
       499.919      0.680000      0.360000
       510.206      0.670000      0.390000
       518.745      0.680000      0.430000
       529.829      0.680000      0.450000
       539.043      0.690000      0.480000
       551.022      0.700000      0.500000
       560.995      0.710000      0.520000
       568.716      0.720000      0.540000
       579.346      0.730000      0.560000
       590.381      0.740000      0.580000
       598.937      0.740000      0.600000
       610.739      0.750000      0.620000
       619.900      0.770000      0.640000
       629.340      0.780000      0.650000
       639.072      0.800000      0.670000
       649.110      0.820000      0.680000
       659.468      0.830000      0.680000
       670.162      0.840000      0.690000
       681.209      0.850000      0.700000
       688.778      0.870000      0.700000
       700.452      0.870000      0.710000
       708.457      0.880000      0.720000
       720.814      0.890000      0.720000
       729.294      0.900000      0.730000
       737.976      0.900000      0.740000
       751.394      0.910000      0.750000
       760.614      0.920000      0.760000
       770.062      0.920000      0.770000
       789.682      0.950000      0.790000
       799.871      0.960000      0.800000
       810.327      0.970000      0.800000
       832.081       1.00000      0.820000
       837.703       1.01000      0.820000
       849.178       1.03000      0.820000
       866.993       1.06000      0.820000
       891.942       1.09000      0.820000
       898.406       1.10000      0.820000
       918.370       1.12000      0.800000
       932.180       1.13000      0.800000
       946.412       1.15000      0.770000
       968.594       1.15000      0.750000
       991.840       1.15000      0.730000
       1007.97       1.14000      0.710000
       1033.17       1.13000      0.700000
       1059.66       1.10000      0.690000
       1078.09       1.09000      0.690000
       1097.17       1.07000      0.690000
       1116.94       1.05000      0.690000
       1147.96       1.03000      0.700000
       1180.76       1.01000      0.720000
       1203.69       1.00000      0.720000
       1239.80      0.980000      0.730000
       1270.29      0.950000      0.730000
       1299.58      0.920000      0.740000
       1340.32      0.860000      0.770000
       1369.94      0.830000      0.810000
       1389.91      0.810000      0.830000
       1420.16      0.780000      0.870000
       1439.95      0.760000      0.890000
       1460.31      0.740000      0.920000
       1490.14      0.720000      0.970000
       1510.11      0.710000       1.00000
       1530.62      0.690000       1.04000
       1549.75      0.680000       1.07000
       1569.37      0.680000       1.11000
       1589.49      0.670000       1.15000
       1610.13      0.670000       1.19000
       1629.17      0.660000       1.23000
       1648.67      0.670000       1.27000
       1679.95      0.690000       1.33000
       1700.69      0.700000       1.36000
       1719.56      0.710000       1.39000
       1738.85      0.720000       1.42000
       1768.62      0.740000       1.45000
       1799.42      0.760000       1.49000
       1820.56      0.750000       1.51000
       1850.45      0.780000       1.57000
       1878.48      0.800000       1.59000
       1910.32      0.820000       1.63000
       1940.22      0.850000       1.66000
       1971.07      0.880000       1.68000
       1999.68      0.890000       1.69000
       2029.13      0.920000       1.72000
       2069.78      0.940000       1.73000
       2101.36      0.960000       1.73000
       2141.28      0.970000       1.74000
       2171.28      0.970000       1.75000
       2209.98      0.950000       1.74000
       2250.09      0.940000       1.76000
       2300.19      0.930000       1.80000
       2339.25      0.900000       1.83000
       2379.65      0.870000       1.87000
       2430.98      0.860000       1.94000
       2479.60      0.850000       2.01000
       2530.20      0.860000       2.07000
       2582.92      0.860000       2.13000
       2637.87      0.860000       2.21000
       2695.22      0.880000       2.28000
       2755.11      0.890000       2.35000
       2817.73      0.900000       2.42000
       2869.91      0.910000       2.49000
       2937.91      0.940000       2.58000
       3001.94      0.980000       2.67000
       3076.43       1.02000       2.76000
       3162.76       1.06000       2.85000
       3237.08       1.12000       2.95000
       3332.80       1.18000       3.04000
       3415.43       1.26000       3.12000
       3512.18       1.33000       3.18000
       3625.15       1.39000       3.24000
       3723.12       1.43000       3.31000
       3850.31       1.44000       3.40000
       3961.02       1.48000       3.54000
       4091.75       1.54000       3.71000
       4245.89       1.65000       3.89000
       4380.92       1.80000       4.06000
       4558.09       1.99000       4.22000
       4714.07       2.22000       4.36000
       4900.40       2.49000       4.44000
       5123.14       2.75000       4.46000
       5321.03       2.98000       4.45000
       5584.68       3.18000       4.41000
       5820.66       3.34000       4.38000
       6107.39       3.48000       4.36000
       7004.52       3.84000       4.37000
       8156.58       4.23000       4.34000
       8265.33       4.27000       4.33000
       8491.78       4.31000       4.32000
       8609.72       4.33000       4.32000
       8855.71       4.38000       4.31000
       9116.18       4.42000       4.30000
       9392.42       4.47000       4.29000
       9685.94       4.49000       4.28000
       9998.39       4.50000       4.28000
       10331.7       4.52000       4.29000
       10687.9       4.53000       4.30000
       11069.6       4.53000       4.31000
       11479.6       4.53000       4.34000
       11921.2       4.51000       4.36000
       12398.0       4.47000       4.43000
       12914.6       4.47000       4.50000
       13476.1       4.45000       4.56000
       13775.6       4.43000       4.60000
       14416.3       4.35000       4.66000
       15119.5       4.24000       4.81000
       15894.9       4.13000       5.03000
       16754.1       4.06000       5.30000
       17711.4       4.01000       5.59000
       18784.8       3.96000       5.95000
       19996.8       4.01000       6.31000
       21375.9       4.01000       6.65000
       22959.3       3.92000       7.06000
       24796.0       3.83000       7.58000
       26952.2       3.72000       8.20000
       29519.0       3.47000       8.97000
       32626.3       3.09000       10.2000
       36464.7       2.89000       12.0000
       41326.7       3.15000       14.3000
       47684.6       3.91000       17.1000
       56354.5       5.30000       20.6000
       68877.8       8.73000       25.4000
       88557.1       15.3000       26.4000
       123980.       11.8000       29.8000
       137756.       11.8000       33.9000
       154975.       13.6000       42.2000
       206633.       21.2000       42.0000
       309950.       14.9000       65.2000
