;  Optical constants for cubic CsI
; 
;   taken from:
;
;   'Handbook of Optical Constants of Solids II', Ed. by Edward D. Palik,
;   Academic Press, Inc., 1991.
;   
;    Lambda (A)            n            k
;-----------------------------------------
       6.19900      0.999822   4.71000e-05
       6.35143      0.999814   5.11000e-05
       6.50814      0.999804   5.55000e-05
       6.66559      0.999795   6.02000e-05
       6.83085      0.999786   6.52000e-05
       6.99661      0.999776   7.07000e-05
       7.16647      0.999765   7.67000e-05
       7.34479      0.999755   8.29000e-05
       7.52306      0.999744   8.98000e-05
       7.70541      0.999732   9.74000e-05
       7.89682      0.999720   0.000106000
       8.08741      0.999709   0.000114000
       8.28743      0.999696   0.000124000
       8.49178      0.999683   0.000134000
       8.69425      0.999671   0.000145000
       8.90661      0.999657   0.000157000
       9.12960      0.999643   0.000170000
       9.34993      0.999630   0.000183000
       9.58114      0.999616   0.000198000
       9.81631      0.999602   0.000215000
       10.0552      0.999589   0.000232000
       10.2973      0.999576   0.000249000
       10.5515      0.999563   0.000268000
       10.8091      0.999551   0.000289000
       11.0795      0.999540   0.000312000
       11.3431      0.999530   0.000335000
       11.6195      0.999527   0.000361000
       11.9097      0.999533   0.000390000
       12.2028      0.999527   0.000369000
       12.4980      0.999494   0.000390000
       12.8079      0.999473   0.000422000
       13.1196      0.999459   0.000456000
       13.4323      0.999455   0.000486000
       13.7603      0.999447   0.000508000
       14.1047      0.999434   0.000532000
       14.4499      0.999412   0.000558000
       14.7947      0.999390   0.000600000
       15.1565      0.999379   0.000657000
       15.5363      0.999389   0.000720000
       15.9153      0.999434   0.000788000
       16.3132      0.999525   0.000865000
       16.7089      0.999649   0.000948000
       17.1007       1.00020   0.000523000
       17.5361      0.999730   0.000568000
       17.9681      0.999633   0.000615000
       18.3947      0.999605   0.000664000
       18.8419      0.999658   0.000724000
       19.3115      0.999781   0.000791000
       19.7735       1.00006   0.000229000
       20.2582      0.999702   0.000243000
       20.7672      0.999512   0.000258000
       21.2659      0.999403   0.000274000
       21.7891      0.999312   0.000291000
       22.3387      0.999230   0.000309000
       22.8745      0.999158   0.000328000
       23.4367      0.999082   0.000347000
       24.0271      0.999008   0.000368000
       24.5992      0.998940   0.000388000
       25.1992      0.998860   0.000410000
       25.8292      0.998790   0.000433000
       26.4350      0.998720   0.000456000
       27.0699      0.998630   0.000483000
       27.7360      0.998560   0.000510000
       28.4358      0.998480   0.000537000
       29.1033      0.998400   0.000565000
       29.8747      0.998310   0.000597000
       30.5369      0.998240   0.000622000
       31.3081      0.998140   0.000656000
       32.1192      0.998050   0.000685000
       32.8859      0.997950   0.000715000
       33.6902      0.997850   0.000744000
       34.5348      0.997750   0.000772000
       35.3219      0.997640   0.000801000
       36.2515      0.997510   0.000836000
       37.1198      0.997400   0.000863000
       38.0307      0.997280   0.000892000
       38.9874      0.997140   0.000927000
       39.8650      0.997010   0.000955000
       40.9175      0.996860   0.000985000
       41.8851      0.996710    0.00101000
       42.8997      0.996550    0.00104000
       43.9645      0.996370    0.00107000
       45.0836      0.996190    0.00110000
       46.0892      0.996020    0.00111000
       47.3206      0.995800    0.00113000
       48.4297      0.995590    0.00114000
       49.5920      0.995360    0.00116000
       50.8115      0.995100    0.00117000
       52.0924      0.994810    0.00118000
       53.4397      0.994510    0.00119000
       54.6167      0.994210    0.00119000
       56.0995      0.993820    0.00120000
       57.3981      0.993470    0.00121000
       58.7583      0.993060    0.00122000
       60.1845      0.992620    0.00123000
       61.6816      0.992130    0.00125000
       63.2551      0.991580    0.00128000
       64.9110      0.991000    0.00129000
       66.2995      0.990410    0.00128000
       68.1209      0.989500    0.00130000
       69.6517      0.988800    0.00140000
       71.2529      0.988000    0.00152000
       72.9294      0.987100    0.00168000
       74.6867      0.986000    0.00191000
       76.5309      0.984800    0.00220000
       78.4684      0.983500    0.00261000
       80.5065      0.982000    0.00317000
       82.6533      0.980300    0.00397000
       84.3401      0.979000    0.00471000
       86.6993      0.977000    0.00597000
       88.5571      0.975200    0.00737000
       91.1618      0.973100    0.00984000
       93.2180      0.971600     0.0121000
       95.3692      0.970300     0.0150000
       97.6220      0.969600     0.0181000
       99.9839      0.969100     0.0214000
       102.463      0.969100     0.0250000
       105.068      0.969600     0.0291000
       107.809      0.971400     0.0334000
       110.696      0.973700     0.0365000
       112.709      0.975500     0.0384000
       115.869      0.978400     0.0412000
       119.212      0.981800     0.0436000
       121.549      0.984200     0.0448000
       123.980      0.986900     0.0462000
       1097.17      0.860000      0.445000
       1106.96      0.880000      0.453000
       1116.94      0.910000      0.473000
       1127.09      0.930000      0.478000
       1137.43      0.930000      0.478000
       1147.96      0.930000      0.486000
       1158.69      0.930000      0.490000
       1169.62      0.930000      0.506000
       1180.76      0.910000      0.531000
       1192.12      0.920000      0.576000
       1203.69      0.930000      0.629000
       1215.49      0.950000      0.694000
       1227.52      0.980000      0.771000
       1239.80       1.04000      0.853000
       1252.32       1.10000      0.939000
       1265.10       1.16000       1.01600
       1278.14       1.22000       1.04500
       1291.46       1.27000       1.02900
       1305.05       1.31000       1.01200
       1318.94       1.34000       1.03700
       1333.12       1.37000       1.06100
       1347.61       1.39000       1.07300
       1362.42       1.40000       1.09800
       1377.56       1.40000       1.12700
       1393.03       1.40000       1.14300
       1408.86       1.39000       1.18400
       1425.06       1.42000       1.29800
       1441.63       1.46000       1.42000
       1458.59       1.53000       1.49800
       1475.95       1.72000       1.71400
       1493.73       1.95000       1.82400
       1511.95       2.12000       1.82400
       1530.62       2.41000       1.85700
       1549.75       2.56000       1.76300
       1569.37       2.73000       1.67800
       1589.49       2.95000       1.57100
       1610.13       3.15000       1.34700
       1631.32       3.08000      0.824000
       1653.07       2.73000      0.649000
       1675.41       2.39000      0.612000
       1698.36       2.13000      0.690000
       1721.94       2.01000      0.878000
       1746.20       2.11000       1.25300
       1771.14       2.38000       1.46100
       1796.81       2.81000       1.37600
       1823.24       2.84000       1.13900
       1850.45       3.05000       1.10200
       1878.48       3.18000      0.922000
       1907.38       2.96000      0.514000
       1937.19       2.79000      0.371000
       1967.94       2.66000      0.404000
       1999.68       2.55000      0.424000
       2032.46       2.53000      0.543000
       2066.33       2.86000      0.784000
       2101.36       3.05000      0.490000
       2137.59       2.81000      0.118000
       2175.09       2.59000      0.208000
       2213.93       2.99000      0.408000
       2254.18       2.97000      0.196000
       2295.93       2.76000       0.00000
       2339.25       2.48000       0.00000
       2384.23       2.33000       0.00000
       2430.98       2.21000       0.00000
       2479.60       2.14000       0.00000
       2500.10       2.20938       0.00000
       2519.92       2.19248       0.00000
       2540.05       2.17676       0.00000
       2559.98       2.16208       0.00000
       2579.69       2.14834       0.00000
       2599.71       2.13545       0.00000
       2620.03       2.12333       0.00000
       2640.12       2.11190       0.00000
       2659.94       2.10110       0.00000
       2680.07       2.09089       0.00000
       2699.91       2.08121       0.00000
       2720.05       2.07202       0.00000
       2739.89       2.06328       0.00000
       2760.02       2.05496       0.00000
       2779.82       2.04703       0.00000
       2799.91       2.03946       0.00000
       2819.65       2.03222       0.00000
       2839.67       2.02530       0.00000
       2859.98       2.01867       0.00000
       2879.91       2.01232       0.00000
       2900.12       2.00622       0.00000
       2919.92       2.00037       0.00000
       2940.00       1.99474       0.00000
       2959.66       1.98932       0.00000
       2979.57       1.98411       0.00000
       2999.76       1.97909       0.00000
       3049.94       1.96731       0.00000
       3099.50       1.95651       0.00000
       3149.90       1.94658       0.00000
       3199.48       1.93741       0.00000
       3249.80       1.92893       0.00000
       3299.97       1.92106       0.00000
       3349.91       1.91373       0.00000
       3399.51       1.90690       0.00000
       3449.64       1.90051       0.00000
       3500.28       1.89453       0.00000
       3549.38       1.88891       0.00000
       3599.88       1.88363       0.00000
       3649.69       1.87866       0.00000
       3699.79       1.87397       0.00000
       3750.15       1.86954       0.00000
       3799.57       1.86535       0.00000
       3850.31       1.86138       0.00000
       3899.97       1.85762       0.00000
       3949.67       1.85404       0.00000
       3999.35       1.85064       0.00000
       4099.87       1.84433       0.00000
       4199.86       1.83859       0.00000
       4300.38       1.83336       0.00000
       4399.57       1.82857       0.00000
       4500.18       1.82417       0.00000
       4600.37       1.82012       0.00000
       4699.77       1.81637       0.00000
       4799.85       1.81291       0.00000
       4900.40       1.80970       0.00000
       4999.19       1.80672       0.00000
       5099.96       1.80393       0.00000
       5200.50       1.80134       0.00000
       5300.56       1.79891       0.00000
       5399.83       1.79664       0.00000
       5500.44       1.79451       0.00000
       5599.82       1.79250       0.00000
       5700.23       1.79062       0.00000
       5798.88       1.78884       0.00000
       5901.00       1.78717       0.00000
       6000.97       1.78559       0.00000
       6199.00       1.78268       0.00000
       6400.62       1.78006       0.00000
       6598.19       1.77770       0.00000
       6800.88       1.77557       0.00000
       7000.56       1.77363       0.00000
       7199.77       1.77186       0.00000
       7401.79       1.77025       0.00000
       7601.47       1.76877       0.00000
       7797.48       1.76741       0.00000
       7998.71       1.76615       0.00000
       8199.74       1.76500       0.00000
       8399.73       1.76392       0.00000
       8597.78       1.76293       0.00000
       8799.15       1.76201       0.00000
       8997.10       1.76115       0.00000
       9197.33       1.76035       0.00000
       9399.54       1.75960       0.00000
       9595.97       1.75890       0.00000
       9800.79       1.75824       0.00000
       9998.39       1.75736       0.00000
       10497.9       1.75624       0.00000
       11000.9       1.75505       0.00000
       11500.9       1.75401       0.00000
       12001.9       1.75310       0.00000
       12499.2       1.75230       0.00000
       12999.9       1.75160       0.00000
       13499.6       1.75097       0.00000
       13999.5       1.75040       0.00000
       14498.9       1.74990       0.00000
       14997.0       1.74944       0.00000
       15499.4       1.74903       0.00000
       15999.5       1.74866       0.00000
       16499.9       1.74832       0.00000
       16999.9       1.74801       0.00000
       17498.9       1.74772       0.00000
       17999.4       1.74746       0.00000
       18499.0       1.74721       0.00000
       18997.9       1.74699       0.00000
       19499.8       1.74678       0.00000
       20000.0       1.74659       0.00000
       20499.3       1.74641       0.00000
       20999.3       1.74625       0.00000
       21498.2       1.74609       0.00000
       21997.9       1.74594       0.00000
       22500.9       1.74581       0.00000
       22997.6       1.74568       0.00000
       23498.9       1.74555       0.00000
       23999.2       1.74544       0.00000
       24497.1       1.74533       0.00000
       25001.0       1.74523       0.00000
       25499.8       1.74513       0.00000
       25997.1       1.74504       0.00000
       26497.1       1.74495       0.00000
       26999.1       1.74487       0.00000
       27496.1       1.74479       0.00000
       27999.1       1.74471       0.00000
       28501.1       1.74464       0.00000
       29001.2       1.74457       0.00000
       29498.0       1.74450       0.00000
       29997.6       1.74443       0.00000
       30499.4       1.74437       0.00000
       30995.0       1.74431       0.00000
       31499.0       1.74425       0.00000
       31994.8       1.74420       0.00000
       32498.0       1.74414       0.00000
       32999.7       1.74409       0.00000
       33499.1       1.74404       0.00000
       33995.1       1.74399       0.00000
       34496.4       1.74394       0.00000
       35002.8       1.74390       0.00000
       35493.8       1.74385       0.00000
       35998.8       1.74381       0.00000
       36496.9       1.74376       0.00000
       36997.9       1.74372       0.00000
       37501.5       1.74368       0.00000
       37995.7       1.74364       0.00000
       38503.1       1.74360       0.00000
       38999.7       1.74356       0.00000
       39496.7       1.74352       0.00000
       39993.5       1.74349       0.00000
       40503.1       1.74345       0.00000
       40998.7       1.74341       0.00000
       41492.6       1.74338       0.00000
       41998.6       1.74334       0.00000
       42502.6       1.74331       0.00000
       43003.8       1.74327       0.00000
       43501.8       1.74324       0.00000
       43995.7       1.74321       0.00000
       44501.1       1.74317       0.00000
       45001.8       1.74314       0.00000
       45497.2       1.74311       0.00000
       46003.7       1.74308       0.00000
       46504.1       1.74305       0.00000
       46997.7       1.74302       0.00000
       47501.9       1.74298       0.00000
       47998.4       1.74295       0.00000
       48505.5       1.74292       0.00000
       49004.0       1.74289       0.00000
       49493.0       1.74286       0.00000
       49991.9       1.74283       0.00000
       50999.6       1.74277       0.00000
       52005.0       1.74271       0.00000
       53005.6       1.74265       0.00000
       53998.3       1.74260       0.00000
       55004.4       1.74254       0.00000
       55998.2       1.74248       0.00000
       57002.3       1.74242       0.00000
       57988.8       1.74236       0.00000
       59010.0       1.74231       0.00000
       60009.7       1.74225       0.00000
       60983.8       1.74219       0.00000
       61990.0       1.74213       0.00000
       62998.0       1.74207       0.00000
       64006.2       1.74202       0.00000
       64979.0       1.74196       0.00000
       65981.9       1.74190       0.00000
       66980.0       1.74184       0.00000
       68008.8       1.74178       0.00000
       68992.8       1.74172       0.00000
       70005.6       1.74166       0.00000
       71008.0       1.74160       0.00000
       71997.7       1.74154       0.00000
       73015.3       1.74147       0.00000
       74017.9       1.74141       0.00000
       75003.0       1.74135       0.00000
       76014.7       1.74129       0.00000
       77006.2       1.74122       0.00000
       77974.8       1.74116       0.00000
       79018.5       1.74109       0.00000
       79987.1       1.74103       0.00000
       80979.8       1.74096       0.00000
       81997.4       1.74090       0.00000
       82985.3       1.74083       0.00000
       83997.3       1.74076       0.00000
       84976.0       1.74069       0.00000
       85977.8       1.74063       0.00000
       87003.5       1.74056       0.00000
       87991.5       1.74049       0.00000
       89002.1       1.74042       0.00000
       89971.0       1.74034       0.00000
       91027.9       1.74027       0.00000
       91973.3       1.74020       0.00000
       93008.2       1.74013       0.00000
       93995.5       1.74005       0.00000
       95003.8       1.73998       0.00000
       95959.8       1.73990       0.00000
       97011.0       1.73983       0.00000
       98007.9       1.73975       0.00000
       99025.6       1.73967       0.00000
       99983.9       1.73960       0.00000
       101957.       1.73944       0.00000
       104010.       1.73928       0.00000
       105966.       1.73911       0.00000
       107997.       1.73895       0.00000
       110009.       1.73878       0.00000
       111996.       1.73861       0.00000
       113952.       1.73843       0.00000
       115978.       1.73826       0.00000
       117964.       1.73808       0.00000
       120019.       1.73789       0.00000
       122028.       1.73771       0.00000
       123992.       1.73752       0.00000
       125996.       1.73732       0.00000
       127999.       1.73713       0.00000
       129999.       1.73693       0.00000
       131992.       1.73673       0.00000
       133989.       1.73653       0.00000
       135988.       1.73632       0.00000
       138001.       1.73611       0.00000
       139995.       1.73589       0.00000
       142000.       1.73568       0.00000
       143995.       1.73546       0.00000
       145996.       1.73524       0.00000
       148000.       1.73501       0.00000
       149988.       1.73478       0.00000
       151992.       1.73455       0.00000
       153993.       1.73431       0.00000
       155989.       1.73408       0.00000
       157997.       1.73383       0.00000
       159995.       1.73359       0.00000
       162002.       1.73334       0.00000
       163995.       1.73309       0.00000
       165993.       1.73284       0.00000
       167995.       1.73258       0.00000
       169999.       1.73232       0.00000
       172003.       1.73206       0.00000
       173983.       1.73179       0.00000
       175983.       1.73152       0.00000
       178004.       1.73124       0.00000
       179994.       1.73097       0.00000
       182002.       1.73069       0.00000
       184001.       1.73041       0.00000
       185905.       1.73012       0.00000
       187962.       1.72983       0.00000
       189979.       1.72954       0.00000
       191979.       1.72924       0.00000
       193992.       1.72894       0.00000
       195985.       1.72864       0.00000
       197988.       1.72833       0.00000
       200000.       1.72802       0.00000
       204993.       1.72723       0.00000
       209993.       1.72642       0.00000
       214982.       1.72559       0.00000
       219979.       1.72474       0.00000
       225009.       1.72387       0.00000
       229976.       1.72298       0.00000
       234989.       1.72206       0.00000
       239992.       1.72112       0.00000
       244971.       1.72016       0.00000
       250010.       1.71918       0.00000
       254998.       1.71817       0.00000
       259971.       1.71715       0.00000
       264971.       1.71610       0.00000
       269991.       1.71502       0.00000
       274961.       1.71392       0.00000
       279991.       1.71281       0.00000
       285012.       1.71167       0.00000
       290012.       1.71050       0.00000
       294980.       1.70931       0.00000
       299976.       1.70810       0.00000
       304994.       1.70686       0.00000
       309950.       1.70560       0.00000
       314990.       1.70431       0.00000
       319948.       1.70300       0.00000
       324980.       1.70166       0.00000
       329997.       1.70030       0.00000
       334991.       1.69891       0.00000
       339951.       1.69750       0.00000
       344964.       1.69606       0.00000
       350028.       1.69460       0.00000
       354938.       1.69310       0.00000
       359988.       1.69158       0.00000
       364969.       1.69004       0.00000
       369979.       1.68846       0.00000
       375015.       1.68686       0.00000
       379957.       1.68523       0.00000
       385031.       1.68358       0.00000
       389997.       1.68189       0.00000
       394967.       1.68017       0.00000
       399936.       1.67843       0.00000
       405031.       1.67666       0.00000
       409987.       1.67485       0.00000
       414926.       1.67302       0.00000
       419986.       1.67115       0.00000
       425026.       1.66926       0.00000
       430038.       1.66733       0.00000
       435018.       1.66537       0.00000
       439957.       1.66338       0.00000
       445011.       1.66136       0.00000
       450018.       1.65930       0.00000
       454972.       1.65721       0.00000
       460037.       1.65509       0.00000
       465041.       1.65293       0.00000
       469977.       1.65073       0.00000
       475019.       1.64851       0.00000
       479984.       1.64624       0.00000
       485055.       1.64394       0.00000
       490040.       1.64161       0.00000
       494930.       1.63923       0.00000
       499919.       1.63682   9.90000e-05
       505010.       1.63437   0.000115000
       509996.       1.63188       0.00000
       515081.       1.62935       0.00000
       520050.       1.62679       0.00000
       524894.       1.62418       0.00000
       530056.       1.62153       0.00000
       535088.       1.61884       0.00000
       539983.       1.61610       0.00000
       544967.       1.61332       0.00000
       550044.       1.61050       0.00000
       554969.       1.60764       0.00000
       559982.       1.60473       0.00000
       565087.       1.60177       0.00000
       570023.       1.59877       0.00000
       575046.       1.59572       0.00000
       579888.       1.59262       0.00000
       585087.       1.58947       0.00000
       590100.       1.58628       0.00000
       594914.       1.58303       0.00000
       600097.       1.57973       0.00000
       605076.       1.57637       0.00000
       610138.       1.57297       0.00000
       614980.       1.56951       0.00000
       619900.       1.56599       0.00000
       624899.       1.56242    0.00162000
       629980.       1.55879       0.00000
       634818.       1.55510       0.00000
       640062.       1.55136       0.00000
       645057.       1.54755       0.00000
       650131.       1.54368       0.00000
       654939.       1.53974       0.00000
       659819.       1.53575       0.00000
       665129.       1.53168       0.00000
       669800.       1.52755       0.00000
       689544.       1.52000       0.00000
       714170.       1.51000    0.00460000
       740621.       1.50000       0.00000
       769107.       1.48000    0.00850000
       799871.       1.45000       0.00000
       833199.       1.40000     0.0280000
       869425.       1.35000       0.00000
       908944.       1.30000      0.110000
       952227.       1.20000       0.00000
       999839.       1.00000      0.155000
   1.06421e+06      0.850000      0.287000
   1.09330e+06      0.790000       0.00000
   1.13224e+06      0.750000       0.00000
   1.17517e+06      0.720000       0.00000
   1.22148e+06      0.680000       0.00000
   1.27055e+06      0.570000       0.00000
   1.31224e+06      0.500000       0.00000
   1.36422e+06      0.570000       2.60000
   1.41837e+06      0.640000       0.00000
   1.47701e+06      0.990000       0.00000
   1.51048e+06       1.42000       4.40000
   1.52666e+06       1.91000       5.10000
   1.54319e+06       2.55000       5.60000
   1.56976e+06       3.26000       0.00000
   1.57475e+06       3.82000       0.00000
   1.57715e+06       4.53000       6.70000
   1.58218e+06       5.24000       0.00000
   1.58969e+06       5.95000       0.00000
   1.59480e+06       6.66000       6.40000
   1.60513e+06       7.79000       5.20000
   1.63132e+06       8.36000       2.90000
   1.65285e+06       8.78000       1.50000
   1.66104e+06       8.22000      0.820000
   1.67224e+06       7.65000       0.00000
   1.69187e+06       7.01000       0.00000
   1.71219e+06       6.51000       0.00000
   1.72099e+06       6.02000       0.00000
   1.74521e+06       5.45000       0.00000
   1.77622e+06       4.96000       0.00000
   1.79838e+06       4.46000       0.00000
   1.85183e+06       4.00000      0.250000
   1.89746e+06       3.54000       0.00000
   1.97609e+06       3.26000       0.00000
   2.22226e+06       2.91000       0.00000
   2.50010e+06       2.87000     0.0710000
   2.85734e+06       2.84000       0.00000
   3.33280e+06       2.81000     0.0460000
   4.29145e+06       2.63000     0.0390000
   5.98648e+06       2.59000     0.0310000
   9.99839e+06       2.56000     0.0210000
   2.00000e+07       2.54000       0.00000
