;  Optical constants for cubic diamond
; 
;   taken from:
;
;   'Handbook of Optical Constants of Solids', Ed. by Edward D. Palik,
;   Academic Press, Inc., 1985.
;   
;    Lambda (A)            n            k
;-----------------------------------------
       413.267      0.493000      0.490000
       420.271      0.493000      0.521000
       427.517      0.494000      0.552000
       435.018      0.496000      0.584000
       442.786      0.501000      0.616000
       450.836      0.508000      0.648000
       459.185      0.516000      0.679000
       467.849      0.527000      0.708000
       476.846      0.538000      0.736000
       486.196      0.550000      0.763000
       495.920      0.562000      0.787000
       506.041      0.574000      0.810000
       516.583      0.586000      0.829000
       527.574      0.595000      0.843000
       539.043      0.597000      0.850000
       551.022      0.579000      0.846000
       563.545      0.518000      0.888000
       576.651      0.483000      0.969000
       590.381      0.487000       1.05200
       604.781      0.503000       1.13000
       619.900      0.527000       1.20300
       635.795      0.557000       1.27300
       652.526      0.589000       1.34100
       670.162      0.626000       1.40800
       688.778      0.665000       1.47600
       708.457      0.707000       1.54600
       729.294      0.753000       1.61900
       751.394      0.805000       1.69200
       774.875      0.861000       1.76700
       799.871      0.917000       1.84500
       826.533      0.972000       1.92900
       840.542      0.994000       1.97800
       855.034       1.01800       2.03400
       870.035       1.04100       2.10200
       885.571       1.07000       2.17800
       901.673       1.09800       2.26800
       918.370       1.12900       2.37900
       935.698       1.16600       2.52200
       953.692       1.22300       2.72200
       968.594       1.31200       2.95300
       983.968       1.53200       3.26500
       999.839       1.98300       3.38200
       1016.23       2.38300       3.35400
       1033.17       2.73600       3.22800
       1055.15       3.09000       2.98600
       1078.09       3.34600       2.69300
       1102.04       3.50700       2.38000
       1127.09       3.58200       2.07800
       1153.30       3.60000       1.81300
       1180.76       3.56500       1.58100
       1209.56       3.51400       1.40300
       1239.80       3.45300       1.25800
       1271.59       3.39800       1.14700
       1305.05       3.34800       1.05500
       1340.32       3.30800      0.978000
       1377.56       3.27200      0.910000
       1416.91       3.24700      0.855000
       1458.59       3.22800      0.806000
       1502.79       3.23200      0.765000
       1549.75       3.25100      0.712000
       1589.49       3.27600      0.659000
       1631.32       3.30600      0.592000
       1653.07       3.32100      0.553000
       1675.41       3.33500      0.515000
       1698.36       3.37600      0.473000
       1721.94       3.43700      0.388000
       1733.99       3.46400      0.307000
       1746.20       3.44400      0.210000
       1771.14       3.32200     0.0935000
       1796.81       3.22000     0.0524000
       1823.24       3.14600     0.0344000
       1850.45       3.08500     0.0220000
       1878.48       3.03100     0.0147000
       1907.38       2.98500     0.0110000
       1937.19       2.94400    0.00987000
       1967.94       2.91000    0.00974000
       1999.68       2.87900    0.00930000
       2032.46       2.85200    0.00862000
       2066.33       2.82600    0.00799000
       2137.59       2.78000    0.00502000
       2213.93       2.74000    0.00148000
       2264.93       2.71510   2.66200e-05
       2312.80       2.69500   7.10000e-06
       2321.16       2.69170   7.10000e-06
       2329.27       2.68810       0.00000
       2572.89       2.61450   1.47000e-06
       2748.27       2.57860   1.29000e-06
       2980.58       2.54290       0.00000
       3467.00       2.49540       0.00000
       3610.37       2.48540       0.00000
       4046.34       2.46260   3.86000e-07
       4677.96       2.44080       0.00000
       4861.20       2.43540       0.00000
       5085.52       2.43060       0.00000
       5460.47       2.42350       0.00000
       5889.79       2.41750       0.00000
       6438.18       2.41110       0.00000
       6562.57       2.41040       0.00000
