;  Optical constants for GaAs
; 
;   taken from:
;
;   'Handbook of Optical Constants of Solids', Ed. by Edward D. Palik,
;   Academic Press, Inc., 1985.
;   
;    Lambda (A)            n            k
;-----------------------------------------
       539.043       1.03700      0.141000
       563.545       1.04300      0.148000
       590.381       1.05800      0.162000
       619.900       1.02500      0.144000
       652.526      0.981000      0.152000
       688.778      0.936000      0.178000
       729.294      0.889000      0.223000
       774.875      0.850000      0.261000
       826.533      0.836000      0.282000
       885.571      0.840000      0.602000
       953.692      0.864000      0.709000
       1033.17      0.895000      0.791000
       1147.96      0.923000      0.881000
       1239.80      0.913000      0.974000
       1377.56      0.901000       1.13600
       1549.75      0.899000       1.43500
       1771.14       1.06300       1.83800
       1878.48       1.24700       2.04700
       1967.94       1.44100       1.98800
       1999.68       1.42400       1.97600
       2066.33       1.26400       2.47200
       2066.33       1.39500       2.04800
       2087.21       1.28700       2.52300
       2101.36       1.28800       2.55600
       2122.95       1.30400       2.59200
       2137.59       1.31100       2.62500
       2159.93       1.32100       2.67300
       2175.09       1.32500       2.71000
       2198.23       1.33900       2.77200
       2213.93       1.34900       2.81500
       2237.91       1.36700       2.88500
       2254.18       1.38300       2.93600
       2279.04       1.41000       3.01900
       2295.93       1.43000       3.07900
       2321.72       1.46800       3.18100
       2339.25       1.49900       3.25500
       2366.03       1.55200       3.38400
       2384.23       1.59900       3.48400
       2412.06       1.69900       3.66000
       2430.98       1.80200       3.79500
       2459.92       2.04400       3.99200
       2479.60       2.27300       4.08400
       2509.72       2.65400       4.10600
       2530.20       2.89000       4.04700
       2561.57       3.18700       3.89800
       2582.92       3.34200       3.77000
       2615.61       3.51100       3.57400
       2637.87       3.59800       3.45200
       2671.98       3.70800       3.28000
       2695.22       3.76900       3.16900
       2730.84       3.85000       3.01800
       2755.11       3.91300       2.91900
       2792.34       4.00400       2.71500
       2817.73       4.01500       2.56300
       2856.68       3.98100       2.36800
       2883.26       3.93900       2.26000
       2924.06       3.86400       2.13200
       2951.90       3.81000       2.06900
       2994.69       3.73600       2.00100
       3023.90       3.69200       1.96900
       3068.81       3.63400       1.93500
       3099.50       3.60100       1.92000
       3146.70       3.55900       1.90700
       3178.97       3.53800       1.90400
       3228.65       3.51200       1.90500
       3262.63       3.50100       1.90900
       3314.97       3.48800       1.92000
       3350.81       3.48500       1.93100
       3406.04       3.48900       1.95000
       3443.89       3.49500       1.96500
       3502.26       3.51300       1.99200
       3542.29       3.53100       2.01300
       3562.64       3.54100       2.02400
       3583.24       3.55300       2.03600
       3604.07       3.56600       2.04900
       3625.15       3.58000       2.06200
       3646.47       3.59600       2.07600
       3668.05       3.61400       2.09100
       3689.88       3.63500       2.10700
       3711.98       3.65700       2.12300
       3734.34       3.68100       2.14200
       3756.97       3.70900       2.16200
       3779.88       3.74000       2.18300
       3803.07       3.77600       2.20700
       3826.54       3.81800       2.23200
       3850.31       3.87100       2.26000
       3874.38       3.93800       2.28800
       3898.74       4.02300       2.30700
       3923.42       4.12600       2.30400
       3948.41       4.22900       2.27000
       3973.72       4.31300       2.21200
       3999.35       4.37300       2.14600
       4025.32       4.41300       2.08200
       4051.63       4.43900       2.02900
       4078.29       4.46200       1.98800
       4105.30       4.48300       1.96100
       4132.67       4.50900       1.94800
       4160.40       4.55000       1.95200
       4188.51       4.62600       1.96700
       4217.01       4.75500       1.96000
       4245.89       4.91700       1.88500
       4275.17       5.05200       1.72100
       4304.86       5.10700       1.52900
       4334.97       5.10200       1.35300
       4365.49       5.06500       1.20600
       4396.45       5.01500       1.08800
       4427.86       4.95900      0.991000
       4459.71       4.90200      0.912000
       4492.03       4.84500      0.846000
       4524.82       4.79300      0.789000
       4558.09       4.74100      0.739000
       4591.85       4.69400      0.696000
       4626.12       4.64900      0.659000
       4660.90       4.60500      0.626000
       4696.21       4.56700      0.595000
       4732.06       4.52500      0.569000
       4768.46       4.49200      0.539000
       4805.43       4.45600      0.517000
       4842.97       4.42300      0.497000
       4881.10       4.39200      0.476000
       4919.84       4.36200      0.458000
       4959.20       4.33300      0.441000
       4999.19       4.30500      0.426000
       5039.84       4.27900      0.411000
       5081.15       4.25400      0.398000
       5123.14       4.22900      0.385000
       5165.83       4.20500      0.371000
       5209.24       4.18300      0.359000
       5253.39       4.16200      0.347000
       5298.29       4.14100      0.337000
       5343.97       4.12000      0.327000
       5390.44       4.10000      0.320000
       5437.72       4.08200      0.308000
       5485.84       4.06300      0.301000
       5534.82       4.04500      0.294000
       5584.68       4.02900      0.285000
       5635.45       4.01300      0.276000
       5687.16       3.99800      0.266000
       5739.81       3.98300      0.257000
       5793.46       3.96800      0.251000
       5848.11       3.95400      0.245000
       5903.81       3.94000      0.240000
       5960.58       3.92700      0.232000
       6018.45       3.91400      0.228000
       6077.45       3.90200      0.223000
       6137.62       3.89000      0.213000
       6199.00       3.87800      0.211000
       6261.62       3.86700      0.203000
       6325.51       3.85600      0.196000
       6390.72       3.84600      0.187000
       6457.29       3.83600      0.183000
       6525.26       3.82600      0.179000
       6594.68       3.81700      0.173000
       6665.59       3.80900      0.173000
       6738.04       3.79900      0.168000
       6812.09       3.79200      0.158000
       6887.78       3.78500      0.151000
       6965.17       3.77900      0.152000
       7044.32       3.77200      0.134000
       7125.29       3.76200      0.127000
       7208.14       3.75200      0.118000
       7292.94       3.74200      0.112000
       7379.76       3.73400      0.105000
       7468.67       3.72500      0.101000
       7559.76       3.71600     0.0970000
       7653.09       3.70700     0.0930000
       7748.75       3.70000     0.0910000
       7846.84       3.69300     0.0890000
       7947.44       3.68500     0.0870000
       8050.65       3.67900     0.0850000
       8156.58       3.67200     0.0830000
       8265.33       3.66600     0.0800000
       8855.71       3.61400    0.00169000
       9183.70       3.56900       0.00000
       9536.92       3.53880       0.00000
       9918.40       3.51380       0.00000
       10331.7       3.49200       0.00000
       10780.9       3.47240       0.00000
       11270.9       3.45460       0.00000
       11807.6       3.43830       0.00000
       12398.0       3.42320       0.00000
       13050.5       3.40940       0.00000
       13775.6       3.39650       0.00000
       14585.9       3.38470       0.00000
       15497.5       3.37370       0.00000
       16530.7       3.36360       0.00000
       17711.4       3.35430       0.00000
       19073.8       3.34570       0.00000
       20663.3       3.33780       0.00000
       22541.8       3.33060       0.00000
       24796.0       3.32400       0.00000
       27551.1       3.31800       0.00000
       30995.0       3.31250       0.00000
       35422.9       3.30750       0.00000
       41326.7       3.30270       0.00000
       42751.7       3.30170       0.00000
       44278.6       3.30080       0.00000
       45918.5       3.29980       0.00000
       47684.6       3.29880       0.00000
       49592.0       3.29780       0.00000
       51658.3       3.29680       0.00000
       53904.3       3.29540       0.00000
       56354.5       3.29460       0.00000
       59038.1       3.29340       0.00000
       61990.0       3.29210       0.00000
       65252.6       3.29070       0.00000
       68877.8       3.28910       0.00000
       72929.4       3.28740       0.00000
       77487.5       3.28540       0.00000
       82653.3       3.28310       0.00000
       88557.1       3.28030       0.00000
       95369.2       3.27690       0.00000
       103317.       3.27270       0.00000
       112709.       3.26710       0.00000
       123980.       3.25970   4.93000e-06
       137756.       3.24930   1.64000e-05
       154975.       3.23360   2.83000e-05
       177114.       3.20810   0.000232000
       190738.       3.18860    0.00827000
       192217.       3.20500    0.00627000
       206633.       3.16090    0.00345000
       208370.       3.17600    0.00318000
       217509.       3.15700    0.00450000
       229593.       3.12600    0.00456000
       238423.       3.10000    0.00343000
       250465.       3.05800    0.00207000
       263787.       2.99700    0.00233000
       277795.       2.91300    0.00650000
       285734.       2.85100    0.00840000
       294140.       2.77000     0.0113000
       302981.       2.65900     0.0159000
       312450.       2.49500     0.0243000
       317409.       2.38000     0.0314000
       322529.       2.22900     0.0421000
       327816.       2.02000     0.0602000
       333280.       1.70700     0.0959000
       334448.       1.62300      0.107000
       335534.       1.52900      0.122000
       336719.       1.42200      0.141000
       337820.       1.29800      0.166000
       338928.       1.15100      0.201000
       340137.      0.975000      0.257000
       341261.      0.761000      0.357000
       342486.      0.536000      0.552000
       343625.      0.391000      0.826000
       344772.      0.323000       1.09000
       346023.      0.291000       1.34000
       347186.      0.275000       1.57000
       348454.      0.267000       1.79000
       349633.      0.266000       2.01000
       350821.      0.270000       2.23000
       352116.      0.278000       2.46000
       353320.      0.290000       2.69000
       354634.      0.307000       2.94000
       355855.      0.329000       3.20000
       357085.      0.358000       3.48000
       358427.      0.395000       3.79000
       359675.      0.443000       4.14000
       361037.      0.506000       4.52000
       362303.      0.592000       4.97000
       363684.      0.713000       5.49000
       364969.      0.890000       6.12000
       366263.       1.17000       6.91000
       367675.       1.64000       7.94000
       368988.       2.56000       9.32000
       370311.       4.66000       11.0000
       371086.       6.63000       11.6000
       371754.       9.30000       11.3000
       372424.       11.6000       9.37000
       373097.       12.4000       6.74000
       373771.       12.0000       4.66000
       374562.       11.3000       3.30000
       375242.       10.6000       2.43000
       375925.       9.90000       1.87000
       377298.       8.87000       1.20000
       378796.       8.12000      0.844000
       380190.       7.55000      0.629000
       381712.       7.11000      0.489000
       383127.       6.76000      0.393000
       384553.       6.47000      0.323000
       392094.       5.57000      0.153000
       399936.       5.08000     0.0902000
       416599.       4.57000     0.0426000
       434712.       4.30000     0.0249000
       454472.       4.13000     0.0163000
       476114.       4.02000     0.0115000
       499919.       3.93000    0.00849000
       499919.       3.87000       0.00000
       999839.       3.65000    0.00360000
       999839.       3.62500    0.00278000
   1.49988e+06       3.62300       0.00000
   1.49988e+06       3.62000       0.00000
   2.00000e+06       3.61500       0.00000
   2.00000e+06       3.61000       0.00000
   2.99976e+06       3.61100       0.00000
   2.99976e+06       3.60000       0.00000
   4.99919e+06       3.60700       0.00000
   9.99839e+06       3.60600       0.00000
