;  Optical constants for GaAs
; 
;   taken from:
;
;   D. L. Windt, 'XUV Optical Constants of single-crystal GaAs and
;   sputtered C, Si, Cr3C2, Mo, and W', App. Opt., 30, 15, 1991.
;   
;    Lambda (A)            n            k
;-----------------------------------------
13.336	.99924248	.000131179
14.561	.99902487	.000191513
15.286	.99897015	.000272104
15.972	.99870646	.000230089
16.693	.99872810	.000338769
17.59	.99858695	.000464452
18.292	.99837935	.000401167
19.45	.99809372	.000518407
20.15	.99815410	.000543098
21.64	.99778998	.000650060
22.29	.99744999	.000762910
23.62	.99726939	.000712371
24.25	.99705964	.000790767
24.78	.99705380	.000888373
27.77	.99612588	.00137455
31.36	.99544060	.00189886
39.77	.99433571	.00372464
43.6	.99222857	.00504059
44.7	.99179375	.00472332
47.67	.99135947	.00570371
52.34	.99029517	.00630431
64.38	.98709607	.0114055
67.67	.98670667	.0131988
72.19	.98629272	.0233381
82.1	.9828333	.0171772
93.4	.98184258	.0246300
108.7	.98310173	.0327228
114	.98005641	.0376491
128.7	.98902392	.0310798
135.5	.98049885	.0434399
171.4	.98246133	.0460271
218	.97033459	.0567272
228	.96604651	.0550129
237.389 .96398205	.0562627
243.027 .96259528	.0496585
256.314 .96270674	.0748958
267.059	.95812905	.0711602
283.206	.95627826	.0803318
303.781 .95195633	.0532407
   314.		.94742	.040968
   319.01	.94567	.049259
   327.00       .94199	.043635
   331.		.93974	.04022
   353.		.92604	.05318
   356.80       .92580	.043313
   379.32       .913	.060123
   405.86       .90341	.06102
   430.18	.88184	.08196
   446.26	.87980	.07391
   454.14	.87485	.0839
   460.74 	.87185	.08993
   485.1	.84321	.11017
   489.52	.84281	.11111
   537.04	.83677	.15492
   539.09	.83468	.15377
   555.07	.81961	.20376
   584.34	.82181	.17084
   616.29	.81925	.17245
   671.48	.76112	.2185
   718.5	.72301	.24191
   735.91	.73919	.22989
   743.72	.72581	.21529
   746.98	.72959	.2585
   834.47	.69182	.39064
   878.01	.70432	.51598
   916.71	.70285	.49134
   919.79	.70370	.50016
   932.05	.70917	.52915
   963.94	.72689	.557
   988.78	.70416	.58519
  1008.		.71395	.59472
  1025.8	.71175	.65573
  1031.		.70115	.61222
  1039.2	.69227	.61862
  1048.2	.71631	.64640
  1066.7	.70576	.64936
  1085.7	.69965	.64866
  1135.		.69693	.71744
  1152.1	.69081	.73722
  1167.5	.775712	.84457
  1199.6	.65525	.72928
  1243.2	.65597	.89324
  1302.2	.58243	.78522
