;  Optical constants for GaP
; 
;   taken from:
;
;   'Handbook of Optical Constants of Solids', Ed. by Edward D. Palik,
;   Academic Press, Inc., 1985.
;   
;    Lambda (A)            n            k
;-----------------------------------------
       774.875      0.730000      0.537000
       826.533      0.748000      0.628000
       885.571      0.759000      0.718000
       953.692      0.780000      0.825000
       1033.17      0.822000      0.938000
       1127.09      0.873000       1.04000
       1180.76      0.875000       1.10400
       1246.03      0.998000       1.22400
       1305.05       1.07600       1.18300
       1369.94       1.04700       1.15100
       1458.59      0.943000       1.22400
       1540.12      0.872000       1.40100
       1653.07      0.944000       1.65200
       1771.14       1.05400       1.87600
       1836.74       1.20000       1.96800
       1892.82       1.30100       1.89600
       1937.19       1.20700       1.83600
       2066.33      0.906000       2.28100
       2066.33       1.30900       2.69000
       2087.21       1.32700       2.76600
       2101.36       1.32700       2.80300
       2122.95       1.34200       2.88200
       2137.59       1.34800       2.93400
       2137.59      0.988000       2.65700
       2159.93       1.36800       3.02800
       2175.09       1.38500       3.09600
       2198.23       1.41800       3.21100
       2213.93       1.44400       3.29700
       2237.91       1.49400       3.44100
       2254.18       1.54300       3.55600
       2279.04       1.66000       3.75200
       2295.93       1.77800       3.88900
       2304.46       1.85100       3.95500
       2313.06       1.93600       4.01900
       2321.72       2.02800       4.07700
       2330.45       2.13400       4.12800
       2339.25       2.24800       4.16800
       2348.11       2.36800       4.19200
       2357.03       2.49000       4.20100
       2366.03       2.60700       4.19700
       2375.10       2.71800       4.18500
       2384.23       2.82500       4.17000
       2393.44       2.93000       4.15000
       2402.71       3.03600       4.12300
       2412.06       3.14400       4.08600
       2421.48       3.24800       4.03600
       2430.98       3.34200       3.97500
       2440.55       3.42400       3.90900
       2450.20       3.49800       3.83900
       2459.92       3.56100       3.76800
       2469.72       3.61500       3.69800
       2479.60       3.66100       3.63100
       2489.56       3.70100       3.56700
       2499.60       3.73900       3.50900
       2509.72       3.77400       3.45400
       2519.92       3.80600       3.40400
       2530.20       3.84400       3.35800
       2540.57       3.88000       3.31600
       2551.03       3.92300       3.26900
       2561.57       3.97000       3.21800
       2572.20       4.01800       3.16200
       2582.92       4.06200       3.09600
       2593.72       4.10000       3.02400
       2604.62       4.13200       2.94900
       2615.61       4.15700       2.87100
       2626.70       4.17300       2.79100
       2637.87       4.18100       2.71200
       2649.15       4.18100       2.63400
       2660.52       4.17300       2.56000
       2671.98       4.15800       2.49100
       2683.55       4.13700       2.42700
       2695.22       4.11300       2.37100
       2730.84       4.03100       2.24100
       2755.11       3.97800       2.18000
       2792.34       3.90700       2.11700
       2817.73       3.86700       2.09000
       2856.68       3.81700       2.06600
       2883.26       3.79200       2.05800
       2924.06       3.76500       2.05700
       2951.90       3.75400       2.06300
       2994.69       3.74800       2.08200
       3023.90       3.75200       2.10000
       3068.81       3.76900       2.13700
       3099.50       3.79000       2.17100
       3146.70       3.84000       2.24000
       3178.97       3.89000       2.30300
       3195.36       3.92300       2.34300
       3211.92       3.96600       2.38900
       3228.65       4.02100       2.44300
       3245.55       4.09500       2.50200
       3262.63       4.19600       2.56200
       3279.89       4.32800       2.61500
       3297.34       4.49700       2.64900
       3314.97       4.70000       2.64600
       3332.80       4.92700       2.58500
       3350.81       5.14900       2.45100
       3369.02       5.32800       2.25000
       3387.43       5.43700       2.01000
       3406.04       5.47200       1.76600
       3424.86       5.45400       1.55000
       3443.89       5.40600       1.36800
       3463.13       5.33900       1.21700
       3482.58       5.26800       1.08900
       3502.26       5.19400      0.982000
       3522.16       5.12100      0.893000
       3542.29       5.05000      0.819000
       3562.64       4.98300      0.752000
       3583.24       4.92000      0.697000
       3604.07       4.86100      0.649000
       3625.15       4.80500      0.605000
       3646.47       4.75100      0.568000
       3668.05       4.70000      0.534000
       3689.88       4.65100      0.503000
       3711.98       4.60400      0.475000
       3734.34       4.56000      0.449000
       3756.97       4.51800      0.426000
       3779.88       4.47900      0.407000
       3803.07       4.44200      0.388000
       3826.54       4.40600      0.369000
       3850.31       4.37200      0.353000
       3874.38       4.33900      0.337000
       3898.74       4.30800      0.323000
       3923.42       4.27800      0.310000
       3948.41       4.24900      0.298000
       3973.72       4.22200      0.285000
       3999.35       4.19600      0.275000
       4025.32       4.17100      0.264000
       4051.63       4.14700      0.253000
       4078.29       4.12400      0.244000
       4105.30       4.10200      0.233000
       4132.67       4.08100      0.224000
       4160.40       4.06000      0.218000
       4188.51       4.04100      0.208000
       4217.01       4.02300      0.202000
       4245.89       4.00600      0.194000
       4275.17       3.99000      0.183000
       4304.86       3.97600      0.176000
       4334.97       3.96400      0.165000
       4365.49       3.95200      0.152000
       4396.45       3.93600      0.135000
       4427.86       3.91900      0.118000
       4459.71       3.90400      0.103000
       4492.03       3.89600     0.0850000
       4524.82       3.86900     0.0570000
       4558.09       3.83500     0.0350000
       4591.85       3.80500     0.0270000
       4696.21       3.73000     0.0150000
       4730.26       3.73000    0.00637000
       4768.46       3.69100       0.00000
       4881.10       3.63800       0.00000
       4959.20       3.60500    0.00254000
       4999.19       3.59000    0.00247000
       4999.19       3.45950       0.00000
       5081.15       3.56100       0.00000
       5165.83       3.53500       0.00000
       5298.29       3.49700       0.00000
       5390.44       3.47400   0.000248000
       5437.72       3.46300   0.000130000
       5449.67       3.45220       0.00000
       5485.84       3.45200   6.20000e-05
       5500.44       3.44110   4.20000e-05
       5534.82       3.44100   2.70000e-05
       5584.68       3.43000   3.10000e-06
       5599.82       3.42030       0.00000
       5635.45       3.42100   1.40000e-06
       5687.16       3.41100   2.80000e-07
       5700.23       3.40120       0.00000
       5793.46       3.39300       0.00000
       5798.88       3.38370       0.00000
       5901.00       3.36750       0.00000
       5903.81       3.37500       0.00000
       6000.97       3.35240       0.00000
       6077.45       3.35000       0.00000
       6098.38       3.33840       0.00000
       6199.00       3.32540       0.00000
       6199.00       3.33400       0.00000
       6299.80       3.31320       0.00000
       6390.72       3.31100       0.00000
       6400.62       3.30180       0.00000
       6501.31       3.29120       0.00000
       6525.26       3.29500       0.00000
       6598.19       3.28110       0.00000
       6698.00       3.27160       0.00000
       6738.04       3.27500       0.00000
       6800.88       3.26260       0.00000
       6887.78       3.26200       0.00000
       6899.28       3.25410       0.00000
       7000.56       3.24620       0.00000
       7125.29       3.24500       0.00000
       7292.94       3.23400       0.00000
       7559.76       3.21900       0.00000
       7748.75       3.20900       0.00000
       7998.71       3.18300       0.00000
       8050.65       3.19100       0.00000
       8265.33       3.17800       0.00000
       8997.10       3.14300       0.00000
       9998.39       3.11920       0.00000
       11000.9       3.09810       0.00000
       12001.9       3.08440       0.00000
       13999.5       3.06460       0.00000
       15999.5       3.05090       0.00000
       17999.4       3.04390       0.00000
       20000.0       3.03790       0.00000
       21997.9       3.03310       0.00000
       23999.2       3.02960       0.00000
       25997.1       3.02710       0.00000
       27999.1       3.02360       0.00000
       29997.6       3.02150       0.00000
       33995.1       3.01810       0.00000
       35998.8       3.01660       0.00000
       37995.7       3.01590   0.000169000
       39993.5       3.01370   0.000153000
       49991.9       3.00400       0.00000
       55004.4       3.00100       0.00000
       60009.7       2.99800       0.00000
       65013.1       2.99500   0.000429000
       70005.6       2.99200       0.00000
       75003.0       2.98000       0.00000
       79987.1       2.98400       0.00000
       84976.0       2.98000       0.00000
       89971.0       2.97500       0.00000
       95003.8       2.97000       0.00000
       99983.9       2.96400       0.00000
       110009.       2.95100       0.00000
       120019.       2.93600    0.00229000
       129999.       2.91800       0.00000
       139995.       2.89600       0.00000
       149988.       2.87100       0.00000
       159995.       2.84100    0.00449000
       169999.       2.80300       0.00000
       179994.       2.75500       0.00000
       189979.       2.69400       0.00000
       200000.       2.61500    0.00716000
       209993.       2.51100       0.00000
       219979.       2.35400       0.00000
       299976.       4.73200       0.00000
       309950.       4.33900       0.00000
       319948.       4.11500       0.00000
       329997.       3.97100       0.00000
       339951.       3.86900       0.00000
       350028.       3.79300     0.0167000
       399936.       3.59400     0.0181000
       450018.       3.50800     0.0111000
       499919.       3.46100    0.00577000
       543772.       3.44400       0.00000
       570548.       3.43020    0.00567000
       596058.       3.42380    0.00403000
       617123.       3.41340    0.00367000
       666918.       3.40100    0.00531000
       717892.       3.39220    0.00434000
       777792.       3.38300    0.00384000
       849760.       3.37540    0.00365000
       909611.       3.37060    0.00377000
   1.06147e+06       3.36210    0.00426000
   1.13743e+06       3.35840    0.00353000
   1.38758e+06       3.35220    0.00381000
   1.68451e+06       3.34630    0.00295000
   1.88792e+06       3.34500    0.00300000
   2.16597e+06       3.34380    0.00319000
   2.96178e+06       3.33990    0.00453000
   3.66047e+06       3.34070    0.00393000
   3.99935e+06       3.33310       0.00000
   4.99919e+06       3.33260       0.00000
   6.00097e+06       3.33230       0.00000
   7.00056e+06       3.33210       0.00000
   7.99871e+06       3.33200       0.00000
   8.99710e+06       3.33195       0.00000
   9.99839e+06       3.33190       0.00000
