;  Optical constants for GaSb
; 
;   taken from:
;
;   'Handbook of Optical Constants of Solids II', Ed. by Edward D. Palik,
;   Academic Press, Inc., 1991.
;   
;    Lambda (A)            n            k
;-----------------------------------------
       2066.33      0.935000       2.41600
       2101.36      0.985000       2.44400
       2137.59       1.02200       2.47900
       2175.09       1.06200       2.53500
       2213.93       1.12700       2.60200
       2254.18       1.21200       2.64500
       2295.93       1.29900       2.65300
       2339.25       1.34500       2.63800
       2384.23       1.35600       2.64500
       2430.98       1.35800       2.68500
       2479.60       1.36900       2.75100
       2530.20       1.38700       2.82900
       2582.92       1.40800       2.92800
       2637.87       1.44400       3.05500
       2695.22       1.50300       3.20800
       2755.11       1.58600       3.39200
       2817.73       1.72300       3.62800
       2883.26       1.98900       3.92300
       2951.90       2.52200       4.13000
       3023.90       3.10000       3.97600
       3099.50       3.45000       3.64300
       3178.97       3.62000       3.32300
       3262.63       3.70100       3.06900
       3350.81       3.74800       2.86200
       3443.89       3.77400       2.69000
       3542.29       3.78500       2.54500
       3646.47       3.79400       2.43000
       3756.97       3.80800       2.31900
       3874.38       3.80000       2.21000
       3999.35       3.76600       2.13400
       4132.67       3.73200       2.10900
       4275.17       3.72800       2.12100
       4427.86       3.76000       2.15700
       4591.85       3.83600       2.21100
       4768.46       3.98400       2.28000
       4959.20       4.31200       2.28500
       5165.83       4.51300       1.96200
       5390.44       4.49200       1.78900
       5635.45       4.52100       1.74700
       5903.81       4.70500       1.80300
