;  Optical constants for H2O
; 
;   taken from:
;
;   'Handbook of Optical Constants of Solids II', Ed. by Edward D. Palik,
;   Academic Press, Inc., 1991.
;   
;    Lambda (A)            n            k
;-----------------------------------------
       100.000      0.968000    0.00174500
       119.938      0.961000    0.00314600
       139.953      0.953000    0.00517400
       179.882      0.935000     0.0116400
       219.772      0.914000     0.0222700
       259.998      0.891000     0.0381800
       299.925      0.867000     0.0606400
       339.662      0.842000     0.0907400
       380.213      0.820000      0.130300
       419.802      0.802000      0.179800
       460.174      0.797000      0.241400
       499.980      0.821000      0.299800
       539.348      0.835000      0.331000
       579.346      0.832000      0.373900
       619.559      0.841000      0.455800
       660.487      0.904000      0.535500
       699.780      0.982000      0.579100
       739.605       1.05000      0.580500
       779.994       1.08800      0.598100
       820.299       1.14100      0.629200
       859.063       1.21500      0.657300
       899.253       1.30300      0.652800
       939.812       1.38800      0.629200
       979.382       1.45600      0.575200
       1020.92       1.49300      0.518500
       1059.21       1.51600      0.470700
       1099.02       1.52900      0.430300
       1140.26       1.54300      0.398800
       1180.31       1.55300      0.370500
       1218.84       1.57000      0.349000
       1258.92       1.60600      0.322000
       1300.17       1.63400      0.239200
       1339.72       1.58600      0.148900
       1380.39       1.49600      0.142200
       1418.99       1.46200      0.192700
       1458.73       1.46900      0.240900
       1499.64       1.52100      0.277200
       1541.71       1.59700      0.258100
       1581.22       1.64100      0.202200
       1621.73       1.65300      0.135100
       1659.42       1.64700     0.0724100
       1698.31       1.60600    0.00399800
       1741.78       1.54900    0.00118200
       1798.82       1.51300   5.99500e-05
       1901.07       1.47500   3.62200e-07
       1999.94       1.45200   1.10100e-07
       2099.01       1.43500   3.84400e-08
       2249.11       1.41600   1.15800e-08
       2500.50       1.39500   9.30700e-09
       2747.91       1.38100   6.29200e-09
       2999.25       1.37100   4.14800e-09
       3250.83       1.36400   3.08200e-09
       3498.80       1.35800   2.52800e-09
       3749.36       1.35400   2.03100e-09
       3999.87       1.35000   1.58000e-09
       4246.18       1.34700   1.16900e-09
       4498.22       1.34400   8.08700e-10
       4752.74       1.34200   7.01100e-10
       4999.80       1.33900   9.24300e-10
       5249.16       1.33800   1.64000e-09
       5494.35       1.33600   2.44200e-09
       5753.40       1.33400   3.84400e-09
       5998.65       1.33300   9.63400e-09
       6249.62       1.33200   1.47200e-08
       6501.65       1.33100   1.67400e-08
       6742.81       1.33000   2.17700e-08
       6997.80       1.32900   3.34800e-08
       7246.06       1.32800   9.13700e-08
       7495.77       1.32700   1.55900e-07
       7745.85       1.32700   1.47800e-07
       7999.74       1.32600   1.25000e-07
       8243.90       1.32500   1.81900e-07
       8488.87       1.32500   2.92900e-07
       8748.85       1.32400   3.90700e-07
       8992.53       1.32400   4.86200e-07
       9250.17       1.32300   1.06000e-06
       9505.48       1.32300   2.93200e-06
       9746.09       1.32200   3.48000e-06
       10000.0       1.32200   3.00000e-06
       10495.2       1.32100   1.41900e-06
       10990.2       1.32000   1.70800e-06
       11507.3       1.31900   9.30600e-06
       11993.8       1.31800   1.19900e-05
       12502.6       1.31700   1.10000e-05
       13001.7       1.31600   1.40000e-05
       13489.3       1.31500   4.04700e-05
       13995.3       1.31400   0.000153000
       14488.0       1.31300   0.000363700
       14996.4       1.31200   0.000224800
       15486.5       1.31100   0.000134800
       15994.3       1.31000   9.34700e-05
       16481.9       1.30800   7.59100e-05
       16983.1       1.30700   7.74300e-05
       17497.2       1.30500   0.000100000
       17988.2       1.30300   0.000135900
       18490.4       1.30100   0.000186100
       19010.7       1.29900    0.00116100
       19496.2       1.29800    0.00184800
       19999.4       1.29700    0.00110100
       20511.9       1.29400   0.000674200
       20990.1       1.29200   0.000464300
       21477.0       1.28900   0.000370500
       21977.2       1.28600   0.000337900
       22491.1       1.28200   0.000373900
       23014.2       1.27800   0.000468600
       23495.3       1.27300   0.000636500
       23985.8       1.26800   0.000909500
       24490.8       1.26100    0.00134800
       25005.0       1.25300    0.00190000
       25528.7       1.24300    0.00214200
       25646.4       1.24000    0.00226600
       25939.4       1.23200    0.00247600
       26300.9       1.21800    0.00401600
       26665.8       1.19900    0.00732500
       27040.3       1.17500     0.0164000
       27411.0       1.14200     0.0462200
       27800.1       1.13100     0.0928500
       28183.7       1.12500      0.142200
       28578.7       1.14500      0.206000
       28976.1       1.19600      0.258100
       29376.4       1.26400      0.280400
       29849.5       1.33400      0.272100
       31988.2       1.46200     0.0924300
       39539.5       1.33700    0.00415700
       41980.2       1.32400    0.00688300
       44462.8       1.31500     0.0114000
       46990.6       1.31100     0.0157000
       49552.4       1.30700     0.0131200
       52000.7       1.29800     0.0101100
       54434.5       1.28200     0.0107800
       57010.2       1.25700     0.0203100
       59557.1       1.23200     0.0864600
       61955.9       1.34200     0.0878600
       63976.5       1.32500     0.0448500
       66530.7       1.30900     0.0345000
       69012.0       1.29800     0.0322000
       71425.3       1.29100     0.0320500
       73960.5       1.28400     0.0324200
       76568.7       1.27700     0.0330200
       79048.7       1.27000     0.0339500
       81496.1       1.26400     0.0349000
       83957.5       1.25700     0.0360400
       86499.7       1.24900     0.0374800
       88887.3       1.24100     0.0391600
       91403.7       1.23300     0.0411000
       93981.2       1.22300     0.0433300
       96617.8       1.21100     0.0460000
       99104.7       1.19900     0.0492900
       101382.       1.18400     0.0538000
       103993.       1.16700     0.0619100
       106411.       1.15000     0.0735900
       108888.       1.13400     0.0897000
       111433.       1.11900      0.108300
       114026.       1.10500      0.132100
       116413.       1.09600      0.157000
       119108.       1.08700      0.186500
       121621.       1.08700      0.217700
       123881.       1.09200      0.247600
       126465.       1.10500      0.274000
       129111.       1.11700      0.297700
       131521.       1.13100      0.318300
       133972.       1.14600      0.336300
       136458.       1.16200      0.351400
       138999.       1.17900      0.364600
       141577.       1.19600      0.375700
       143880.       1.20900      0.384400
       146557.       1.22600      0.393400
       148937.       1.23900      0.399800
       151348.       1.25400      0.405300
       154171.       1.26800      0.411900
       156659.       1.28300      0.417600
       158851.       1.29500      0.420500
       161441.       1.30900      0.424400
       164062.       1.32300      0.426400
       166327.       1.33500      0.428300
       169028.       1.35000      0.429300
       171402.       1.36100      0.429300
       174178.       1.37500      0.429300
       176610.       1.38600      0.428300
       179043.       1.39600      0.426400
       181547.       1.40700      0.425400
       184053.       1.41800      0.423400
       186630.       1.42800      0.419600
       188778.       1.43600      0.415700
       191416.       1.44600      0.411000
       194092.       1.45400      0.407200
       196342.       1.46000      0.401600
       199075.       1.46700      0.395200
       230142.       1.51600      0.362900
       279865.       1.54600      0.299100
       330349.       1.51200      0.283000
       380213.       1.48100      0.319000
       429532.       1.48100      0.388000
       479836.       1.52000      0.457900
       559881.       1.61900      0.516200
       660487.       1.72900      0.523300
       760427.       1.80600      0.507900
       859063.       1.86000      0.477300
       959672.       1.89100      0.448500
   1.30017e+06       1.92000      0.418600
   1.79882e+06       1.95600      0.450600
   2.30142e+06       2.00100      0.496400
   2.79865e+06       2.04500      0.535500
   3.59696e+06       2.09900      0.596700
   4.60174e+06       2.16600      0.672700
   5.59881e+06       2.22000      0.735900
   7.49577e+06       2.29000      0.872500
   1.00000e+07       2.39900       1.04200
   1.49986e+07       2.62900       1.39300
   1.99994e+07       2.88200       1.67000
   2.49990e+07       3.13400       1.89100
   3.00019e+07       3.37500       2.07900
   3.50008e+07       3.60700       2.22800
   3.99987e+07       3.82900       2.36000
   4.50034e+07       4.04500       2.46000
   4.99980e+07       4.24800       2.55100
   5.50044e+07       4.44200       2.62500
   6.00213e+07       4.63100       2.68500
   6.49756e+07       4.81100       2.72700
   6.99780e+07       4.98000       2.76600
   7.50166e+07       5.14600       2.79200
   7.99974e+07       5.30500       2.81100
   8.50285e+07       5.45900       2.82600
   9.00036e+07       5.60700       2.83200
   9.49602e+07       5.74700       2.83500
   1.00000e+08       5.87900       2.83000
   1.49986e+08       6.86700       2.63000
   1.99994e+08       7.45600       2.33800
   2.49990e+08       7.83100       2.06400
   3.00019e+08       8.07500       1.82400
   3.50008e+08       8.23800       1.62700
   3.99987e+08       8.35300       1.46300
   4.50034e+08       8.43600       1.32700
   4.99980e+08       8.49700       1.21200
   5.50044e+08       8.54600       1.11500
   6.00213e+08       8.58700       1.03100
   6.49756e+08       8.62000      0.958900
   6.99780e+08       8.64800      0.896000
   7.50166e+08       8.67000      0.840600
   7.99974e+08       8.68900      0.791400
   8.49585e+08       8.70500      0.747600
   9.00036e+08       8.72000      0.708300
   9.49602e+08       8.73200      0.673000
   1.00000e+09       8.74300      0.640900
   1.49964e+09       8.80400      0.433700
   1.99994e+09       8.82400      0.327700
   2.50050e+09       8.83300      0.263400
   2.99925e+09       8.83800      0.220200
   3.49880e+09       8.84100      0.189100
   3.99987e+09       8.84300      0.165900
   4.49822e+09       8.84400      0.147800
   4.99980e+09       8.84500      0.133300
   5.49435e+09       8.84600      0.121300
   5.99864e+09       8.84600      0.111400
   6.50165e+09       8.84700      0.103000
   6.99780e+09       8.84700     0.0956700
   7.49577e+09       8.84700     0.0892900
   7.99974e+09       8.84700     0.0839100
   8.48887e+09       8.84700     0.0788500
   8.99253e+09       8.84700     0.0746100
   9.50548e+09       8.84800     0.0707600
   1.00000e+10       8.84800     0.0672700
   1.49964e+10       8.84800     0.0450600
   1.99994e+10       8.84800     0.0339500
   2.50050e+10       8.84900     0.0272100
   2.99925e+10       8.84900     0.0227400
   3.49880e+10       8.84900     0.0195300
   3.99987e+10       8.84900     0.0171300
   4.49822e+10       8.84900     0.0152300
   4.99980e+10       8.84900     0.0137300
   5.49435e+10       8.84900     0.0125000
   5.99865e+10       8.84900     0.0114800
   6.50165e+10       8.84900     0.0106100
   6.99780e+10       8.84900    0.00985800
   7.49577e+10       8.84900    0.00920000
   7.99974e+10       8.84900    0.00862600
   8.48887e+10       8.84900    0.00812400
   8.99253e+10       8.84900    0.00768800
   9.50548e+10       8.84900    0.00729100
   1.00000e+11       8.84900    0.00693100
