;  Optical constants for Hf
; 
;   taken from:
;
;   D. L. Windt, Webster C. Cash, Jr., M. Scott, P. Arendt, B. Newnam,
;   R. F. Fisher, and A. B. Swartzlander, 'Optical Constants for thin films
;   of Ti, Zr, Nb, Mo, Ru, Rh, Pd, Ag, Hf, Ta, W, Re, Ir, Os, Pt, and Au
;   from 24 to 1216 A', App. Opt., 27, 246, 1988.
;   
;    Lambda (A)            n            k
;-----------------------------------------
   23.620      .99705	.00163
   31.600      .99598	.00279
   44.700      .99169	.00660
   67.600      .9848	.0119	
   114.00      .9638	.0238	
   135.50      .9498	.0342	
   171.40      .9245	.0473	
   243.03      .802	.1787	
   256.32      .7898	.2164	
   303.78      .9275	.2783	
   327.00      .9183	.3369	
   356.80      .9289	.3365	
   379.31      1.037	.454	
   405.85      .894	.278
   447.81      .847	.315
   460.73      .842	.294
   489.50      .883	.387
   539.09      .828	.313
   584.33      .801	.386
   616.29      .814	.403
   671.39      .804	.483
   718.48      .853	.550
   735.90      .843	.588
   743.72      .856	.602
   834.46      .813	.785
   878.00      .808	.873
   919.78      .885	.965
   932.05      .960	1.014
   988.78      .912	1.026
   1025.8      1.072	1.134
   1048.2      1.106	1.139
   1066.7      1.189	1.180
   1085.7      1.150	1.174
   1135.0      1.266	1.202
   1200.7      1.248	1.178
   1215.7      1.388	1.187
