;  Optical constants for InP
; 
;   taken from:
;
;   'Handbook of Optical Constants of Solids', Ed. by Edward D. Palik,
;   Academic Press, Inc., 1985.
;   
;    Lambda (A)            n            k
;-----------------------------------------
       619.900      0.793000      0.494000
       635.795      0.815000      0.499000
       652.526      0.834000      0.493000
       670.162      0.843000      0.487000
       688.778      0.846000      0.477000
       708.457      0.840000      0.469000
       729.294      0.824000      0.454000
       751.394      0.785000      0.457000
       774.875      0.742000      0.491000
       799.871      0.719000      0.529000
       826.533      0.695000      0.574000
       855.034      0.675000      0.645000
       885.571      0.688000      0.706000
       918.370      0.701000      0.765000
       953.692      0.726000      0.820000
       991.840      0.754000      0.861000
       1033.17      0.771000      0.899000
       1078.09      0.781000      0.946000
       1127.09      0.793000      0.996000
       1180.76      0.797000       1.05600
       1239.80      0.806000       1.15400
       1252.32      0.820000       1.17200
       1265.10      0.832000       1.18500
       1278.14      0.840000       1.19800
       1291.46      0.847000       1.21000
       1305.05      0.852000       1.22500
       1318.94      0.859000       1.23700
       1333.12      0.861000       1.25300
       1347.61      0.865000       1.26900
       1362.42      0.868000       1.28700
       1377.56      0.872000       1.30400
       1393.03      0.874000       1.32400
       1408.86      0.875000       1.34600
       1425.06      0.877000       1.37500
       1441.63      0.885000       1.40300
       1458.59      0.894000       1.43300
       1475.95      0.909000       1.45800
       1493.73      0.919000       1.48600
       1511.95      0.934000       1.51200
       1530.62      0.947000       1.53900
       1549.75      0.960000       1.56600
       1569.37      0.973000       1.59400
       1589.49      0.984000       1.62700
       1610.13       1.00000       1.66400
       1631.32       1.02200       1.70000
       1653.07       1.04600       1.73600
       1675.41       1.07200       1.77100
       1698.36       1.10000       1.81200
       1721.94       1.13600       1.84700
       1746.20       1.17400       1.88200
       1771.14       1.21500       1.91500
       1796.81       1.26100       1.94100
       1823.24       1.30700       1.96600
       1850.45       1.35400       1.98600
       1878.48       1.40200       2.99400
       1907.38       1.45300       2.01000
       1937.19       1.49600       2.00800
       1967.94       1.52600       1.99100
       1999.68       1.52500       1.98200
       2032.46       1.50800       2.00500
       2066.33       1.50000       2.06300
       2066.33       1.33600       2.11300
       2087.21       1.31800       2.15100
       2101.36       1.30100       2.18300
       2101.36       1.51600       2.13000
       2122.95       1.30100       2.23900
       2137.59       1.29900       2.28000
       2137.59       1.54400       2.19100
       2159.93       1.31100       2.34100
       2175.09       1.32500       2.38300
       2175.09       1.57300       2.26700
       2198.23       1.35200       2.44600
       2213.93       1.37500       2.48400
       2213.93       1.61600       2.34900
       2237.91       1.40700       2.53200
       2254.18       1.42600       2.56200
       2279.04       1.44700       2.61100
       2295.93       1.45500       2.65200
       2321.72       1.46700       2.73400
       2339.25       1.48200       2.80200
       2366.03       1.51900       2.92200
       2384.23       1.55800       3.01600
       2412.06       1.64900       3.17600
       2430.98       1.74500       3.29100
       2459.92       1.95800       3.43800
       2479.60       2.13100       3.49500
       2509.72       2.39100       3.51900
       2530.20       2.54600       3.51400
       2561.57       2.78200       3.52300
       2582.92       2.98400       3.51700
       2615.61       3.34400       3.40100
       2637.87       3.56000       3.22300
       2671.98       3.75700       2.87700
       2695.22       3.80000       2.63700
       2730.84       3.75900       2.33500
       2755.11       3.69700       2.18600
       2792.34       3.59300       2.02400
       2817.73       3.52700       1.94800
       2856.68       3.43700       1.86500
       2883.26       3.38400       1.82600
       2924.06       3.31400       1.78200
       2951.90       3.27500       1.76200
       2994.69       3.22400       1.74200
       3023.90       3.19600       1.73500
       3068.81       3.16100       1.73000
       3099.50       3.14100       1.73000
       3146.70       3.11900       1.73700
       3178.97       3.10800       1.74400
       3228.65       3.09700       1.76000
       3262.63       3.09500       1.77300
       3314.97       3.09700       1.79700
       3350.81       3.10300       1.81600
       3406.04       3.11800       1.84800
       3443.89       3.13300       1.87200
       3502.26       3.16500       1.91500
       3542.29       3.19300       1.94800
       3604.07       3.24800       2.00900
       3646.47       3.29900       2.06000
       3711.98       3.42600       2.15900
       3756.97       3.57600       2.20900
       3826.54       3.81900       2.17700
       3874.38       3.97600       2.14300
       3948.41       4.29600       1.96600
       3999.35       4.41500       1.73500
       4078.29       4.43300       1.41400
       4132.67       4.39500       1.24700
       4217.01       4.31400       1.06100
       4275.17       4.25600      0.964000
       4365.49       4.17300      0.847000
       4427.86       4.12100      0.786000
       4524.82       4.04800      0.712000
       4591.85       4.00400      0.667000
       4696.21       3.94000      0.614000
       4768.46       3.90300      0.579000
       4881.10       3.85100      0.536000
       4959.20       3.81800      0.511000
       5081.15       3.77300      0.479000
       5165.83       3.74500      0.457000
       5298.29       3.70600      0.431000
       5390.44       3.68200      0.416000
       5534.82       3.64900      0.393000
       5635.45       3.62900      0.380000
       5793.46       3.60200      0.358000
       5903.81       3.58500      0.347000
       6077.45       3.56300      0.329000
       6199.00       3.54900      0.317000
       6390.72       3.53000      0.299000
       6525.26       3.51700      0.293000
       6738.04       3.50100      0.278000
       6887.78       3.49200      0.270000
       7125.29       3.48100      0.255000
       7292.94       3.47600      0.242000
       7559.76       3.46900      0.225000
       7748.75       3.46700      0.218000
       8050.65       3.45900      0.209000
       8265.33       3.45600      0.203000
       9252.24       3.39620     0.0355000
       9300.83       3.39050     0.0109000
       9349.92       3.38500    0.00590000
       9399.54       3.37970    0.00318000
       9449.70       3.37460   0.000967000
       9500.38       3.36960   0.000527000
       9536.92       3.36200   0.000281000
       9558.98       3.36470       0.00000
       9603.41       3.36000   7.39000e-05
       9610.85       3.35300       0.00000
       9655.76       3.35550   3.92000e-05
       9685.94       3.34500   2.46000e-05
       9708.69       3.35100       0.00000
       9754.52       3.34670   1.13000e-05
       9762.21       3.33700       0.00000
       9839.68       3.33000       0.00000
       9918.40       3.32400       0.00000
       9998.39       3.31800       0.00000
       10006.5       3.32690       0.00000
       10079.7       3.31200       0.00000
       10162.3       3.30700       0.00000
       10246.3       3.30200       0.00000
       10331.7       3.29700       0.00000
       10780.9       3.27400       0.00000
       11000.9       3.26870       0.00000
       11270.9       3.25400       0.00000
       11807.6       3.23600       0.00000
       12001.9       3.23120       0.00000
       12398.0       3.22000       0.00000
       13004.0       3.20530       0.00000
       13050.5       3.20500       0.00000
       13775.6       3.19100       0.00000
       14004.3       3.18640       0.00000
       14585.9       3.17800       0.00000
       15497.5       3.16700       0.00000
       16530.7       3.15600       0.00000
       17711.4       3.14600       0.00000
       19073.8       3.13700       0.00000
       20663.3       3.12900       0.00000
       22541.8       3.12100       0.00000
       24796.0       3.11400       0.00000
       27551.1       3.10700       0.00000
       30995.0       3.10100       0.00000
       35422.9       3.09500       0.00000
       41326.7       3.08900       0.00000
       49592.0       3.08300       0.00000
       61990.0       3.07400       0.00000
       68877.8       3.06900       0.00000
       77487.5       3.06200       0.00000
       88557.1       3.05300       0.00000
       103317.       3.03800       0.00000
       123980.       3.01200       0.00000
       137756.       2.99000       0.00000
       145859.       2.97500    0.00148000
       154975.       2.95600    0.00390000
       165307.       2.93200       0.00000
       177114.       2.89800       0.00000
       190738.       2.85100       0.00000
       206633.       2.78000     0.0146000
       225418.       2.66200     0.0115000
       243911.       2.49400       0.00000
       247960.       2.42900     0.0335000
       250010.       2.41100       0.00000
       253175.       2.36100     0.0190000
       256422.       2.30500     0.0210000
       259753.       2.23900     0.0250000
       263171.       2.16300     0.0290000
       266681.       2.07200     0.0350000
       270286.       1.96300     0.0430000
       273989.       1.82700     0.0540000
       277795.       1.65300     0.0700000
       281709.       1.41800     0.0990000
       285734.       1.06900      0.160000
       287323.      0.869000      0.220000
       288998.      0.611000      0.340000
       290692.      0.372000      0.610000
       292406.      0.273000      0.920000
       294140.      0.234000       1.20000
       295824.      0.216000       1.45000
       297600.      0.209000       1.69000
       299396.      0.209000       1.93000
       301215.      0.213000       2.16000
       302981.      0.221000       2.41000
       304844.      0.234000       2.67000
       306729.      0.251000       2.94000
       308638.      0.275000       3.24000
       310571.      0.307000       3.57000
       312450.      0.350000       3.94000
       314431.      0.409000       4.37000
       316437.      0.493000       4.87000
       318469.      0.619000       5.48000
       320527.      0.822000       6.26000
       322529.       1.81000       7.32000
       324640.       1.94000       8.83000
       325749.       2.69000       9.85000
       326779.       4.00000       11.1000
       327816.       6.42000       12.1000
       328947.       10.2000       11.6000
       329997.       12.7000       8.24000
       331143.       12.5000       5.00000
       332208.       11.4000       3.14000
       333280.       10.4000       2.13000
       335534.       8.93000       1.17000
       337820.       7.95000      0.749000
       340137.       7.28000      0.525000
       342486.       6.78000      0.391000
       344772.       6.39000      0.304000
       350821.       5.73000      0.183000
       357085.       5.31000      0.124000
       363578.       5.01000     0.0890000
       370311.       4.79000     0.0680000
       384553.       4.48000     0.0430000
       399936.       4.27000     0.0300000
       416599.       4.13000     0.0220000
       434712.       4.02000     0.0170000
       454472.       3.93000     0.0130000
       476114.       3.87000     0.0110000
       499919.       3.81000    0.00870000
       666559.       3.65000       0.00000
       999839.       3.57000       0.00000
   1.24992e+06       3.55100       0.00000
   1.66662e+06       3.53800       0.00000
   2.50010e+06       3.52900       0.00000
   4.99919e+06       3.52300       0.00000
   9.99839e+06       3.52200       0.00000
