;  Optical constants for InSb
; 
;   taken from:
;
;   'Handbook of Optical Constants of Solids', Ed. by Edward D. Palik,
;   Academic Press, Inc., 1985.
;   
;    Lambda (A)            n            k
;-----------------------------------------
       495.920       1.15000     0.0888000
       516.583       1.15000     0.0937000
       539.043       1.15000      0.105000
       563.545       1.16000      0.125000
       590.381       1.17000      0.145000
       619.900       1.17000      0.160000
       652.526       1.18000      0.173000
       688.778       1.15000      0.178000
       729.294       1.11000      0.181000
       799.871       1.02000      0.170000
       826.533      0.970000      0.230000
       885.571      0.880000      0.269000
       953.692      0.800000      0.370000
       1033.17      0.750000      0.510000
       1127.09      0.720000      0.690000
       1239.80      0.740000      0.880000
       1377.56      0.800000       1.08000
       1549.75      0.880000       1.32000
       1631.32      0.940000       1.41000
       1823.24       1.06000       1.61000
       2066.33       1.23000       1.91000
       2066.33      0.861000       2.13900
       2087.21      0.900000       2.18000
       2101.36      0.922000       2.18500
       2122.95      0.951000       2.20400
       2137.59      0.969000       2.21000
       2159.93      0.992000       2.22700
       2175.09       1.00000       2.23500
       2175.09       1.36000       1.97000
       2198.23       1.01600       2.25700
       2213.93       1.02500       2.27500
       2237.91       1.04200       2.30700
       2254.18       1.05700       2.33300
       2279.04       1.08800       2.36900
       2295.93       1.11600       2.39400
       2321.72       1.16100       2.42400
       2339.25       1.19400       2.43500
       2366.03       1.24200       2.44600
       2384.23       1.27000       2.44400
       2412.06       1.30100       2.43500
       2430.98       1.30900       2.43000
       2459.92       1.31100       2.43100
       2479.60       1.30700       2.44100
       2509.72       1.30100       2.47000
       2530.20       1.30100       2.49500
       2561.57       1.30600       2.54200
       2582.92       1.31200       2.57600
       2615.61       1.32800       2.63000
       2637.87       1.34100       2.66900
       2671.98       1.36600       2.73200
       2695.22       1.38500       2.77600
       2730.84       1.41900       2.84500
       2755.11       1.44300       2.89400
       2792.34       1.48400       2.97500
       2817.73       1.51500       3.03400
       2856.68       1.57100       3.13400
       2883.26       1.61800       3.20900
       2924.06       1.70800       3.33700
       2951.90       1.79100       3.43300
       2994.69       1.96600       3.58200
       3023.90       2.12700       3.66600
       3068.81       2.42500       3.72000
       3099.50       2.63200       3.69400
       3146.70       2.90200       3.58100
       3178.97       3.04400       3.47900
       3228.65       3.20400       3.31400
       3262.63       3.28700       3.20400
       3314.97       3.38300       3.03900
       3350.81       3.42700       2.93300
       3406.04       3.46800       2.78900
       3443.89       3.48500       2.70500
       3502.26       3.50400       2.58900
       3542.29       3.51100       2.51700
       3604.07       3.51500       2.42400
       3646.47       3.52000       2.36900
       3711.98       3.52800       2.28000
       3756.97       3.52500       2.21700
       3826.54       3.50200       2.13700
       3874.38       3.48200       2.09300
       3948.41       3.44500       2.03800
       3999.35       3.41900       2.01500
       4078.29       3.38400       1.99700
       4132.67       3.36600       1.99400
       4217.01       3.34800       1.99700
       4275.17       3.34200       2.00400
       4365.49       3.34000       2.02100
       4427.86       3.34500       2.03600
       4524.82       3.36000       2.06200
       4591.85       3.37700       2.08300
       4696.21       3.41300       2.11900
       4768.46       3.44700       2.14500
       4881.10       3.51200       2.18800
       4959.20       3.57000       2.22100
       4999.19       3.60500       2.23800
       5039.84       3.64600       2.25400
       5081.15       3.69400       2.27100
       5123.14       3.75200       2.28300
       5165.83       3.82200       2.28700
       5209.24       3.90000       2.27400
       5253.39       3.97600       2.23900
       5298.29       4.04000       2.18300
       5343.97       4.08400       2.12100
       5390.44       4.11100       2.06000
       5437.72       4.12600       2.00500
       5485.84       4.13300       1.95700
       5534.82       4.13600       1.91500
       5584.68       4.13600       1.88000
       5635.45       4.13500       1.85000
       5687.16       4.13400       1.82600
       5739.81       4.13200       1.80600
       5793.46       4.13200       1.79000
       5848.11       4.13300       1.77900
       5903.81       4.13600       1.77000
       5960.58       4.14200       1.76500
       6018.45       4.14900       1.76300
       6077.45       4.16100       1.76300
       6137.62       4.17500       1.76700
       6199.00       4.19400       1.77300
       6261.62       4.21800       1.78400
       6325.51       4.24900       1.79900
       6390.72       4.29000       1.81800
       6457.29       4.34700       1.84400
       6525.26       4.43300       1.87300
       6594.68       4.56600       1.87900
       6665.59       4.72300       1.81600
       6738.04       4.84100       1.68500
       6812.09       4.89800       1.53400
       6887.78       4.90900       1.39600
       6887.78       5.13000       1.37000
       6965.17       4.89400       1.27500
       7044.32       4.86700       1.17100
       7125.29       4.83000       1.08500
       7208.14       4.79300       1.01000
       7292.94       4.75400      0.949000
       7379.76       4.71200      0.897000
       7468.67       4.67500      0.848000
       7559.76       4.63700      0.808000
       7653.09       4.60200      0.776000
       7748.75       4.56800      0.749000
       7748.75       4.72000      0.600000
       7846.84       4.53400      0.723000
       7947.44       4.50100      0.701000
       8050.65       4.47300      0.675000
       8156.58       4.44200      0.659000
       8265.33       4.41800      0.643000
       8855.71       4.40000      0.400000
       10331.7       4.24000      0.320000
       12398.0       4.15000      0.260000
       15497.5       4.08000      0.200000
       20663.3       4.03000       0.00000
       49991.9       4.14000     0.0910000
       55004.4       4.15000       0.00000
       60009.7       4.19000     0.0740000
       65013.1       4.30000     0.0630000
       70005.6       4.37000     0.0280000
       75003.0       4.18000    0.00270000
       78717.5       4.00100       0.00000
       79997.4       3.99500       0.00000
       90101.7       3.96700       0.00000
       99983.9       3.93800       0.00000
       100633.       3.95300       0.00000
       110107.       3.93700       0.00000
       111093.       3.93300       0.00000
       120603.       3.92000       0.00000
       124992.       3.92600       0.00000
       129795.       3.91200       0.00000
       138991.       3.90200       0.00000
       142851.       3.91500       0.00000
       151306.       3.88100       0.00000
       157896.       3.87300       0.00000
       166662.       3.89800       0.00000
       169603.       3.86600       0.00000
       178491.       3.85000       0.00000
       188505.       3.84300       0.00000
       199807.       3.82600       0.00000
       200000.       3.86900    0.00200000
       211498.       3.81400       0.00000
       221987.       3.80500       0.00000
       250010.       3.78000    0.00510000
       250010.       3.81100       0.00000
       259971.       3.74000    0.00750000
       269991.       3.66000    0.00970000
       277795.       3.77000       0.00000
       279991.       3.56000     0.0110000
       290012.       3.50000     0.0100000
       294140.       3.74300       0.00000
       299976.       3.47000     0.0100000
       309950.       3.44000     0.0100000
       312450.       3.70800       0.00000
       319948.       3.39000     0.0100000
       329997.       3.34000     0.0110000
       333280.       3.66200    0.00784000
       339951.       3.30000     0.0120000
       344772.       3.63000    0.00896000
       350028.       3.25000     0.0140000
       357085.       3.60000     0.0103000
       370311.       3.56000     0.0121000
       384553.       3.51000     0.0144000
       399936.       2.98000     0.0260000
       399936.       3.45000     0.0275000
       416599.       3.37000     0.0220000
       425463.       3.32000     0.0251000
       434712.       3.26000     0.0291000
       444373.       3.18000     0.0344000
       450018.       2.57000     0.0540000
       454472.       3.09000     0.0416000
       465041.       2.97000     0.0523000
       476114.       2.82000     0.0692000
       487726.       2.59000       9.93000
       499919.       2.22000      0.165000
       505010.       2.00000      0.217000
       510206.       1.69000      0.311000
       515509.       1.25000      0.525000
       518094.      0.989000      0.753000
       520924.      0.776000       1.10000
       523564.      0.663000       1.49000
       526231.      0.618000       1.88000
       529151.      0.611000       2.27000
       531875.      0.632000       2.67000
       534858.      0.680000       3.10000
       537641.      0.760000       3.57000
       540453.      0.884000       4.10000
       543534.       1.08000       4.73000
       546408.       1.39000       5.48000
       549557.       1.95000       6.43000
       552496.       3.05000       7.59000
       555466.       5.34000       8.56000
       558720.       8.68000       7.34000
       561758.       9.61000       4.20000
       565087.       8.82000       2.31000
       568194.       7.97000       1.42000
       571336.       7.32000      0.963000
       574780.       6.82000      0.699000
       577995.       6.44000      0.534000
       581520.       6.14000      0.424000
       584811.       5.89000      0.347000
       588140.       5.69000      0.291000
       595199.       5.37000      0.216000
       602430.       5.13000      0.170000
       609838.       4.94000      0.140000
       617123.       4.79000      0.119000
       624899.       4.66000      0.105000
       645057.       4.42000     0.0838000
       666559.       4.24000     0.0743000
       689544.       4.09000     0.0710000
       714170.       3.96000     0.0715000
       740621.       3.85000     0.0749000
       769107.       3.74000     0.0808000
       799871.       3.62000     0.0891000
       833199.       3.51000      0.100000
       869425.       3.38000      0.115000
       908944.       3.25000      0.134000
       952227.       3.10000      0.159000
       999839.       2.92000      0.193000
   1.05246e+06       2.71000      0.240000
   1.11093e+06       2.45000      0.310000
   1.17628e+06       2.12000      0.423000
   1.24992e+06       1.68000      0.633000
   1.33326e+06       1.19000       1.09000
   1.42851e+06      0.881000       1.79000
   1.53840e+06      0.781000       2.51000
   1.66662e+06      0.771000       3.21000
   1.81816e+06      0.811000       3.94000
   2.00000e+06      0.894000       4.72000
   2.22226e+06       1.02000       5.59000
   2.50010e+06       1.21000       6.61000
   2.85734e+06       1.50000       7.83000
   3.33280e+06       1.93000       9.35000
   3.99935e+06       2.63000       11.3000
   4.99919e+06       3.81000       14.0000
   6.66559e+06       6.03000       17.9000
   9.99839e+06       10.7000       24.0000
