;  Optical constants for ZnS, IRTRAN 2
; 
;   taken from:
;
;   'Handbook of Optical Constants of Solids', Ed. by Edward D. Palik,
;   Academic Press, Inc., 1985.
;   
;    Lambda (A)            n            k
;-----------------------------------------
       9998.39       2.29070       0.00000
       12499.2       2.27770       0.00000
       14998.8       2.27060       0.00000
       17498.9       2.26620       0.00000
       20000.0       2.26310   6.20000e-06
       22500.9       2.26080       0.00000
       25001.0       2.25890       0.00000
       27496.1       2.25730       0.00000
       29997.6       2.25580   5.30000e-06
       32498.0       2.25440       0.00000
       35002.8       2.25310       0.00000
       37501.5       2.25180       0.00000
       39993.5       2.25040   3.80000e-06
       42502.6       2.24910       0.00000
       45001.8       2.24770       0.00000
       47501.9       2.24620       0.00000
       49991.9       2.24470   2.80000e-06
       52489.4       2.24320       0.00000
       55004.4       2.24160       0.00000
       57504.6       2.23990       0.00000
       60009.7       2.23810   2.90000e-06
       62489.9       2.23630       0.00000
       65013.1       2.23440       0.00000
       67490.5       2.23240       0.00000
       70005.6       2.23040   3.90000e-06
       72502.9       2.22820       0.00000
       75003.0       2.22600       0.00000
       77487.5       2.22370       0.00000
       79987.1       2.22130   4.50000e-06
       82488.4       2.21880       0.00000
       84976.0       2.21620       0.00000
       87494.7       2.21350       0.00000
       89971.0       2.21070   5.70000e-06
       92522.4       2.20780       0.00000
       95003.8       2.20480       0.00000
       97468.5       2.20180       0.00000
       99983.9       2.19860   8.80000e-06
       110009.       2.18460   3.90000e-05
       120019.       2.16880   4.50000e-05
       129999.       2.15080       0.00000
