;  Optical constants for Ir
; 
;   taken from:
;
;   'Handbook of Optical Constants of Solids', Ed. by Edward D. Palik,
;   Academic Press, Inc., 1985.
;   
;    Lambda (A)            n            k
;-----------------------------------------
       6.19900      0.999710   0.000122000
       6.35143      0.999585   0.000131000
       6.50814      0.999451   0.000142000
       6.66559      0.999388   0.000153000
       6.83085      0.999335   0.000165000
       6.99661      0.999284   0.000178000
       7.16647      0.999235   0.000192000
       7.34479      0.999185   0.000207000
       7.52306      0.999134   0.000223000
       7.70541      0.999082   0.000240000
       7.89682      0.999028   0.000259000
       8.08741      0.998970   0.000279000
       8.28743      0.998920   0.000300000
       8.49178      0.998860   0.000323000
       8.69425      0.998800   0.000348000
       8.90661      0.998730   0.000374000
       9.12960      0.998670   0.000403000
       9.34993      0.998600   0.000434000
       9.58114      0.998530   0.000467000
       9.81631      0.998460   0.000503000
       10.0552      0.998380   0.000541000
       10.2973      0.998300   0.000580000
       10.5515      0.998220   0.000624000
       10.8091      0.998140   0.000671000
       11.0795      0.998050   0.000722000
       11.3431      0.997960   0.000775000
       11.6195      0.997870   0.000833000
       11.9097      0.997770   0.000897000
       12.2028      0.997680   0.000964000
       12.4980      0.997580    0.00103000
       12.8079      0.997470    0.00111000
       13.1196      0.997370    0.00119000
       13.4323      0.997260    0.00127000
       13.7603      0.997150    0.00136000
       14.1047      0.997030    0.00145000
       14.4499      0.996920    0.00155000
       14.7947      0.996800    0.00166000
       15.1565      0.996680    0.00177000
       15.5363      0.996550    0.00189000
       15.9153      0.996430    0.00202000
       16.3132      0.996300    0.00216000
       16.7089      0.996180    0.00230000
       17.1007      0.996070    0.00245000
       17.5361      0.995980    0.00262000
       17.9681      0.995870    0.00270000
       18.3947      0.995710    0.00279000
       18.8419      0.995530    0.00296000
       19.3115      0.995360    0.00319000
       19.7735      0.995220    0.00334000
       20.2582      0.995070    0.00353000
       20.7672      0.994910    0.00374000
       21.2659      0.994770    0.00395000
       21.7891      0.994630    0.00417000
       22.3387      0.994490    0.00440000
       22.8745      0.994360    0.00462000
       23.4367      0.994230    0.00485000
       24.0271      0.994110    0.00507000
       24.5992      0.993970    0.00526000
       25.1992      0.993800    0.00546000
       25.8292      0.993620    0.00568000
       26.4350      0.993430    0.00589000
       27.0699      0.993220    0.00611000
       27.7360      0.992970    0.00638000
       29.1033      0.992520    0.00703000
       29.8747      0.992290    0.00741000
       30.5369      0.992120    0.00774000
       31.3081      0.991930    0.00814000
       32.1192      0.991760    0.00851000
       32.8859      0.991590    0.00886000
       33.6902      0.991400    0.00924000
       34.5348      0.991210    0.00964000
       35.3219      0.991040     0.0100000
       36.2515      0.990860     0.0105000
       37.1198      0.990700     0.0109000
       38.0307      0.990560     0.0114000
       38.9874      0.990450     0.0119000
       39.8650      0.990400     0.0123000
       40.9175      0.990450     0.0129000
       41.8851      0.990720     0.0134000
       42.8997      0.991090     0.0126000
       43.9645      0.990440     0.0129000
       45.0836      0.990060     0.0132000
       46.0892      0.989800     0.0133000
       47.3206      0.989400     0.0135000
       48.4297      0.988900     0.0138000
       49.5920      0.988500     0.0141000
       50.8115      0.988000     0.0145000
       52.0924      0.987600     0.0149000
       53.4397      0.987000     0.0152000
       54.6167      0.986600     0.0156000
       56.0995      0.986000     0.0160000
       57.3981      0.985500     0.0164000
       58.7583      0.985000     0.0168000
       60.1845      0.984300     0.0172000
       61.6816      0.983600     0.0176000
       63.2551      0.982800     0.0182000
       64.9110      0.982300     0.0190000
       66.2995      0.981900     0.0193000
       68.1209      0.981200     0.0195000
       69.6517      0.980400     0.0198000
       71.2529      0.979500     0.0202000
       72.9294      0.978600     0.0205000
       74.6867      0.977600     0.0210000
       76.5309      0.976400     0.0215000
       78.4684      0.975200     0.0222000
       80.5065      0.973900     0.0230000
       82.6533      0.972900     0.0239000
       84.3401      0.972000     0.0242000
       86.6993      0.970800     0.0246000
       88.5571      0.969600     0.0249000
       91.1618      0.967600     0.0252000
       93.2180      0.965800     0.0254000
       95.3692      0.963400     0.0257000
       97.6220      0.960900     0.0272000
       99.9839      0.958800     0.0288000
       102.463      0.957000     0.0305000
       105.068      0.955500     0.0318000
       107.809      0.953600     0.0327000
       110.696      0.951300     0.0337000
       112.709      0.949800     0.0345000
       115.869      0.947300     0.0353000
       119.212      0.944300     0.0362000
       121.549      0.941900     0.0368000
       123.980      0.939400     0.0374000
       309.950      0.760000      0.220000
       326.263      0.730000      0.240000
       344.389      0.690000      0.270000
       364.647      0.640000      0.350000
       387.438      0.620000      0.440000
       413.267      0.640000      0.530000
       420.271      0.640000      0.550000
       427.517      0.650000      0.570000
       435.018      0.660000      0.590000
       442.786      0.660000      0.610000
       450.836      0.660000      0.630000
       459.185      0.660000      0.660000
       467.849      0.670000      0.690000
       476.846      0.670000      0.720000
       486.196      0.680000      0.760000
       495.920      0.690000      0.790000
       506.041      0.700000      0.830000
       516.583      0.730000      0.870000
       527.574      0.760000      0.920000
       539.043      0.790000      0.960000
       551.022      0.840000      0.990000
       563.545      0.890000       1.00000
       576.651      0.940000       1.02000
       590.381      0.990000       1.04000
       604.781       1.04000       1.05000
       619.900       1.10000       1.06000
       632.551       1.15000       1.05000
       645.729       1.20000       1.03000
       659.468       1.24000       1.00000
       673.804       1.27000      0.970000
       688.778       1.30000      0.930000
       704.432       1.30000      0.870000
       720.814       1.28000      0.830000
       737.976       1.25000      0.820000
       755.976       1.23000      0.820000
       774.875       1.21000      0.830000
       794.744       1.20000      0.830000
       815.658       1.19000      0.840000
       837.703       1.18000      0.870000
       860.972       1.17000      0.880000
       885.571       1.16000      0.910000
       911.618       1.17000      0.950000
       939.242       1.18000      0.960000
       968.594       1.19000       1.01000
       999.839       1.21000       1.05000
       1033.17       1.24000       1.08000
       1050.68       1.25000       1.10000
       1068.79       1.28000       1.12000
       1087.54       1.31000       1.13000
       1106.96       1.34000       1.14000
       1127.09       1.38000       1.13000
       1147.96       1.41000       1.12000
       1169.62       1.43000       1.09000
       1192.12       1.44000       1.07000
       1215.49       1.45000       1.04000
       1239.80       1.45000       1.01000
       1252.32       1.44000       1.00000
       1265.10       1.44000      0.990000
       1278.14       1.43000      0.980000
       1291.46       1.42000      0.970000
       1305.05       1.40000      0.960000
       1318.94       1.39000      0.950000
       1333.12       1.38000      0.950000
       1347.61       1.36000      0.950000
       1362.42       1.35000      0.940000
       1377.56       1.33000      0.940000
       1393.03       1.31000      0.940000
       1408.86       1.29000      0.950000
       1425.06       1.27000      0.950000
       1441.63       1.26000      0.960000
       1458.59       1.24000      0.970000
       1475.95       1.22000      0.980000
       1493.73       1.20000      0.990000
       1511.95       1.18000       1.00000
       1530.62       1.15000       1.01000
       1549.75       1.13000       1.03000
       1569.37       1.11000       1.05000
       1589.49       1.08000       1.06000
       1610.13       1.05000       1.10000
       1631.32       1.03000       1.14000
       1653.07       1.03000       1.18000
       1675.41       1.02000       1.20000
       1698.36       1.00000       1.23000
       1721.94      0.990000       1.27000
       1746.20      0.980000       1.30000
       1771.14      0.970000       1.34000
       1796.81      0.960000       1.38000
       1823.24      0.950000       1.42000
       1850.45      0.950000       1.46000
       1878.48      0.940000       1.50000
       1907.38      0.950000       1.54000
       1937.19      0.940000       1.59000
       1967.94      0.940000       1.63000
       1999.68      0.940000       1.68000
       2032.46      0.940000       1.73000
       2066.33      0.950000       1.78000
       2101.36      0.970000       1.82000
       2137.59      0.960000       1.86000
       2175.09      0.970000       1.92000
       2213.93      0.980000       1.98000
       2254.18      0.990000       2.03000
       2295.93       1.00000       2.09000
       2339.25       1.02000       2.15000
       2384.23       1.04000       2.22000
       2430.98       1.07000       2.29000
       2479.60       1.10000       2.35000
       2530.20       1.13000       2.42000
       2582.92       1.18000       2.49000
       2637.87       1.24000       2.56000
       2695.22       1.31000       2.60000
       2755.11       1.37000       2.65000
       2817.73       1.45000       2.68000
       2883.26       1.51000       2.70000
       2951.90       1.58000       2.71000
       3023.90       1.62000       2.70000
       3099.50       1.64000       2.68000
       3178.97       1.64000       2.67000
       3262.63       1.61000       2.69000
       3350.81       1.57000       2.72000
       3443.89       1.52000       2.81000
       3542.29       1.50000       2.93000
       3646.47       1.53000       3.05000
       3756.97       1.57000       3.15000
       3874.38       1.62000       3.26000
       3999.35       1.68000       3.35000
       4132.67       1.73000       3.43000
       4275.17       1.77000       3.51000
       4427.86       1.81000       3.61000
       4591.85       1.85000       3.73000
       4768.46       1.91000       3.86000
       4959.20       1.98000       4.00000
       5165.83       2.07000       4.14000
       5390.44       2.18000       4.26000
       5635.45       2.29000       4.38000
       5903.81       2.40000       4.48000
       6199.00       2.50000       4.57000
       6525.26       2.57000       4.68000
       6887.78       2.64000       4.81000
       7292.94       2.69000       4.92000
       7748.75       2.68000       5.08000
       8265.33       2.65000       5.39000
       8855.71       2.72000       5.74000
       9536.92       2.85000       6.07000
       10331.7       2.96000       6.41000
       11270.9       3.04000       6.84000
       12398.0       3.15000       7.31000
       13775.6       3.19000       7.88000
       15497.5       3.14000       8.61000
       17711.4       2.93000       9.78000
       20663.3       2.79000       11.6000
       24796.0       2.98000       14.1000
       27551.1       3.05000       15.8000
       30995.0       3.42000       18.1000
       35422.9       4.11000       20.8000
       41326.7       5.16000       24.3000
       49592.0       6.85000       28.8000
       61990.0       9.69000       35.3000
       82653.3       15.3000       45.2000
       123980.       28.5000       60.6000
