;  Optical constants for KCl
; 
;   taken from:
;
;   'Handbook of Optical Constants of Solids', Ed. by Edward D. Palik,
;   Academic Press, Inc., 1985.
;   
;    Lambda (A)            n            k
;-----------------------------------------
       66.9800      0.998740    0.00101000
       113.017      0.995780    0.00422000
       288.326      0.960000     0.0300000
       295.190      0.955000     0.0250000
       302.390      0.945000     0.0200000
       309.950      0.925000     0.0180000
       317.897      0.910000     0.0200000
       326.263      0.890000     0.0300000
       335.081      0.870000     0.0500000
       339.671      0.845000     0.0704000
       344.389      0.860000     0.0800000
       349.239      0.830000     0.0916000
       354.229      0.870000      0.115000
       359.362      0.851000      0.105000
       364.647      0.890000      0.120000
       370.090      0.854000     0.0783000
       374.562      0.821000     0.0677000
       379.144      0.800000     0.0924000
       383.839      0.797000      0.111000
       388.652      0.795000      0.121000
       393.587      0.797000      0.131000
       398.650      0.799000      0.134000
       403.844      0.795000      0.134000
       409.175      0.779000      0.134000
       414.649      0.756000      0.145000
       420.271      0.743000      0.175000
       426.048      0.730000      0.207000
       428.997      0.729000      0.234000
       431.986      0.743000      0.265000
       435.018      0.785000      0.275000
       438.092      0.805000      0.261000
       441.210      0.816000      0.245000
       444.373      0.814000      0.228000
       450.836      0.789000      0.230000
       457.491      0.775000      0.241000
       464.345      0.755000      0.263000
       471.407      0.745000      0.302000
       475.019      0.750000      0.335000
       478.687      0.779000      0.359000
       482.412      0.805000      0.362000
       486.196      0.824000      0.358000
       490.040      0.836000      0.357000
       493.944      0.851000      0.346000
       501.943      0.849000      0.317000
       510.206      0.813000      0.328000
       518.745      0.806000      0.363000
       527.574      0.819000      0.388000
       536.710      0.834000      0.413000
       541.397      0.849000      0.418000
       546.167      0.860000      0.420000
       551.022      0.868000      0.420000
       555.964      0.872000      0.418000
       566.119      0.814000      0.416000
       571.336      0.790000      0.488000
       576.651      0.820000      0.569000
       582.066      0.918000      0.612000
       587.583       1.01000      0.587000
       593.206       1.06000      0.530000
       598.937       1.07000      0.449000
       604.781       1.02000      0.355000
       610.739      0.926000      0.411000
       616.816      0.910000      0.495000
       623.015      0.982000      0.584000
       629.340       1.00000      0.497000
       635.795       1.01000      0.533000
       649.110       1.09000      0.525000
       662.995       1.17000      0.489000
       677.486       1.15000      0.387000
       692.626       1.11000      0.367000
       700.452       1.07000      0.382000
       708.457       1.07000      0.411000
       716.647       1.09000      0.428000
       725.029       1.13000      0.420000
       733.609       1.14000      0.376000
       742.395       1.13000      0.357000
       760.614       1.09000      0.322000
       779.748       1.05000      0.317000
       799.871       1.01000      0.328000
       821.060      0.965000      0.344000
       843.401      0.931000      0.367000
       866.993      0.883000      0.415000
       891.942      0.791000      0.441000
       918.370      0.690000      0.731000
       946.412      0.841000      0.950000
       961.085      0.914000       1.04000
       976.220       1.04000       1.22000
       991.840       1.34000       1.29000
       1007.97       1.57000       1.12000
       1024.63       1.67000      0.959000
       1041.85       1.74000      0.767000
       1059.66       1.73000      0.640000
       1068.79       1.67000      0.580000
       1078.09       1.66000      0.530000
       1078.09       1.69000      0.520000
       1087.54       1.65000      0.490000
       1097.17       1.63000      0.450000
       1097.17       1.62000      0.425000
       1106.96       1.60000      0.410000
       1116.94       1.57000      0.380000
       1116.94       1.55000      0.374000
       1127.09       1.54000      0.350000
       1137.43       1.50000      0.325000
       1137.43       1.50000      0.363000
       1147.96       1.47000      0.310000
       1158.69       1.42000      0.315000
       1158.69       1.40000      0.336000
       1169.62       1.38000      0.360000
       1175.17       1.36000      0.380000
       1180.76       1.37000      0.385000
       1192.12       1.39500      0.380000
       1203.69       1.35000      0.370000
       1215.49       1.30000      0.350000
       1227.52       1.24000      0.355000
       1239.80       1.16000      0.380000
       1252.32       1.05000      0.410000
       1265.10      0.870000      0.580000
       1278.14      0.800000      0.900000
       1291.46      0.940000       1.27000
       1305.05       1.38000       1.49500
       1318.94       1.81000       1.38000
       1333.12       2.07000       1.13000
       1347.61       2.18000      0.850000
       1362.42       2.12000      0.640000
       1377.56       1.99000      0.500000
       1393.03       1.90000      0.430000
       1408.86       1.85000      0.400000
       1425.06       1.81000      0.390000
       1441.63       1.79000      0.370000
       1458.59       1.75000      0.345000
       1475.95       1.73000      0.340000
       1493.73       1.68000      0.265000
       1511.95       1.54000      0.215000
       1530.62       1.36000      0.250000
       1549.75       1.15000      0.460000
       1569.37       1.13000      0.900000
       1589.49       1.30000       1.36000
       1610.13       1.92000       1.64000
       1631.32       2.63000       1.34000
       1642.12       2.92000       1.10000
       1653.07       3.00000      0.510000
       1664.16       2.80000      0.200000
       1675.41       2.61000     0.0600000
       1698.36       2.34000    0.00311000
       1721.94       2.19000   0.000178000
       1746.20       2.08000   7.96000e-06
       1771.14       2.00000   8.46000e-07
       1796.81       1.94000   2.29000e-07
       1799.94       1.89324       0.00000
       1820.02       1.86392       0.00000
       1823.24       1.89000   1.45000e-07
       1840.01       1.83883       0.00000
       1850.45       1.85000       0.00000
       1859.89       1.81705       0.00000
       1878.48       1.82000       0.00000
       1879.91       1.79789       0.00000
       1900.08       1.78087       0.00000
       1907.38       1.80000       0.00000
       1937.19       1.78000       0.00000
       2000.00       1.71739       0.00000
       2099.93       1.67539       0.00000
       2199.79       1.64517       0.00000
       2299.76       1.62226       0.00000
       2399.92       1.60426       0.00000
       2500.10       1.58972       0.00000
       2599.71       1.57775       0.00000
       2699.91       1.56772       0.00000
       2799.91       1.55921       0.00000
       2900.12       1.55191       0.00000
       2999.76       1.54558       0.00000
       3100.27       1.54005       0.00000
       3200.31       1.53518       0.00000
       3299.97       1.53087       0.00000
       3399.51       1.52703       0.00000
       3500.28       1.52358       0.00000
       3599.88       1.52049       0.00000
       3699.79       1.51769       0.00000
       3799.57       1.51515       0.00000
       3899.97       1.51283       0.00000
       3999.35       1.51072       0.00000
       4199.86       1.50701       0.00000
       4399.57       1.50386       0.00000
       4600.37       1.50115       0.00000
       4799.85       1.49882       0.00000
       4999.19       1.49679       0.00000
       5200.50       1.49501       0.00000
       5399.83       1.49344       0.00000
       5599.82       1.49205       0.00000
       5798.88       1.49081       0.00000
       6000.97       1.48969       0.00000
       6199.00       1.48869       0.00000
       6400.62       1.48779       0.00000
       6598.19       1.48697       0.00000
       6800.88       1.48623       0.00000
       7000.56       1.48555       0.00000
       7199.77       1.48493       0.00000
       7401.79       1.48436       0.00000
       7601.47       1.48384       0.00000
       7797.48       1.48336       0.00000
       7998.71       1.48291       0.00000
       8199.74       1.48250       0.00000
       8399.73       1.48212       0.00000
       8597.78       1.48176       0.00000
       8799.15       1.48143       0.00000
       8997.10       1.48111       0.00000
       9197.33       1.48082       0.00000
       9399.54       1.48055       0.00000
       9603.41       1.48030       0.00000
       9800.79       1.48006       0.00000
       9998.39       1.47983       0.00000
       11000.9       1.47887       0.00000
       12001.9       1.47813       0.00000
       12999.9       1.47755       0.00000
       13999.5       1.47708       0.00000
       15000.6       1.47668       0.00000
       15999.5       1.47634       0.00000
       16999.9       1.47605       0.00000
       17999.4       1.47580       0.00000
       19000.8       1.47557       0.00000
       20000.0       1.47536       0.00000
       21997.9       1.47498       0.00000
       23999.2       1.47464       0.00000
       25997.1       1.47433       0.00000
       27999.1       1.47403   1.27000e-10
       29997.6       1.47374       0.00000
       32003.1       1.47345       0.00000
       33995.1       1.47315       0.00000
       35998.8       1.47285       0.00000
       37995.7       1.47254   1.97000e-10
       39993.5       1.47223       0.00000
       41998.6       1.47190       0.00000
       43995.7       1.47156       0.00000
       46003.7       1.47122       0.00000
       47998.4       1.47085       0.00000
       49991.9       1.47048       0.00000
       52005.0       1.47010       0.00000
       53998.3       1.46970       0.00000
       55998.2       1.46928       0.00000
       57988.8       1.46886       0.00000
       60009.7       1.46842       0.00000
       61990.0       1.46796       0.00000
       64006.2       1.46749       0.00000
       65981.9       1.46701       0.00000
       68008.8       1.46651       0.00000
       70005.6       1.46600       0.00000
       71997.7       1.46547       0.00000
       74017.9       1.46493       0.00000
       76014.7       1.46437       0.00000
       77974.8       1.46379       0.00000
       79987.1       1.46290       0.00000
       81997.4       1.46260       0.00000
       83997.3       1.46198       0.00000
       85977.8       1.46134       0.00000
       87991.5       1.46069       0.00000
       89971.0       1.46002       0.00000
       91973.3       1.45934       0.00000
       93995.5       1.45864       0.00000
       96034.1       1.45792       0.00000
       98007.9       1.45719       0.00000
       99983.9       1.45644       0.00000
       101957.       1.45567       0.00000
       104010.       1.45489       0.00000
       105966.       1.45409   2.53000e-08
       107997.       1.45327       0.00000
       110009.       1.45244       0.00000
       111996.       1.45159       0.00000
       113952.       1.45072       0.00000
       115978.       1.44984       0.00000
       117964.       1.44893       0.00000
       120019.       1.44801       0.00000
       122028.       1.44707       0.00000
       123992.       1.44611       0.00000
       125996.       1.44514       0.00000
       127999.       1.44415       0.00000
       129999.       1.44313       0.00000
       131992.       1.44210       0.00000
       134003.       1.44105       0.00000
       136003.       1.43999       0.00000
       138001.       1.43890       0.00000
       139995.       1.43779       0.00000
       142000.       1.43667       0.00000
       143995.       1.43552       0.00000
       145996.       1.43343       0.00000
       148000.       1.43317       0.00000
       150006.       1.43197       0.00000
       151992.       1.43074       0.00000
       153993.       1.42950       0.00000
       155989.       1.42823       0.00000
       157997.       1.42694       0.00000
       159995.       1.42563       0.00000
       162002.       1.42000       0.00000
       163995.       1.42295       0.00000
       165993.       1.42158       0.00000
       167995.       1.42018       0.00000
       169999.       1.41877       0.00000
       172003.       1.41733       0.00000
       174007.       1.41587       0.00000
       176008.       1.41438       0.00000
       178004.       1.41287       0.00000
       179994.       1.41134       0.00000
       182002.       1.40979       0.00000
       184001.       1.40821       0.00000
       185989.       1.40661       0.00000
       187991.       1.40498       0.00000
       190008.       1.40333       0.00000
       192009.       1.40165       0.00000
       193992.       1.39995       0.00000
       195985.       1.39822       0.00000
       197988.       1.39647       0.00000
       200000.       1.39469   7.64000e-05
       204993.       1.39012       0.00000
       209993.       1.38538       0.00000
       214982.       1.38047       0.00000
       219979.       1.37537       0.00000
       225009.       1.37009       0.00000
       229976.       1.36461       0.00000
       234989.       1.35892       0.00000
       239992.       1.35303       0.00000
       245020.       1.34692       0.00000
       250010.       1.34059   0.000657000
       254998.       1.33402       0.00000
       259971.       1.32721       0.00000
       264971.       1.32014       0.00000
       269991.       1.31281       0.00000
       275022.       1.30520       0.00000
       279991.       1.29731       0.00000
       285012.       1.28911       0.00000
       290012.       1.28060       0.00000
       294140.       1.30000       0.00000
       294980.       1.27175       0.00000
       299976.       1.26260       0.00000
       304994.       1.25300       0.00000
       310028.       1.24310       0.00000
       312528.       1.28000       0.00000
       314990.       1.23270       0.00000
       320031.       1.22200       0.00000
       322613.       1.25000       0.00000
       324980.       1.21080       0.00000
       329997.       1.19910       0.00000
       333369.       1.20000    0.00663000
       334991.       1.86690       0.00000
       339951.       1.17410       0.00000
       344868.       1.15000       0.00000
       344964.       1.16080       0.00000
       350028.       1.14690       0.00000
       357188.       1.10000     0.0230000
       370311.       1.05000     0.0280000
       384553.      0.990000     0.0420000
       399936.      0.930000     0.0830000
       416599.      0.850000      0.160000
       425463.      0.860000      0.170000
       434712.      0.800000      0.180000
       444373.      0.700000      0.200000
       454472.      0.530000      0.350000
       465041.      0.610000      0.580000
       476114.      0.700000      0.520000
       499919.      0.570000      0.530000
       526231.      0.410000      0.770000
       555466.      0.310000       1.05000
       571336.      0.230000       0.00000
       588140.      0.170000       1.50000
       605963.      0.150000       0.00000
       624899.      0.170000       2.20000
       645057.      0.240000       2.90000
       666559.      0.440000       4.00000
       689544.       1.10000       5.50000
       714170.       5.30000       4.00000
       740621.       5.00000      0.800000
       769107.       4.10000      0.320000
       799871.       3.50000      0.230000
       833199.       3.20000      0.200000
       908944.       2.90000      0.150000
       999839.       2.70000      0.110000
   1.11093e+06       2.60000     0.0660000
   1.24992e+06       2.50000       0.00000
   1.42851e+06       2.40000       0.00000
   1.66662e+06       2.30000       0.00000
   2.00000e+06       2.20000       0.00000
