;  Optical constants for LiF
; 
;   taken from:
;
;   'Handbook of Optical Constants of Solids II', Ed. by Edward D. Palik,
;   Academic Press, Inc., 1991.
;   
;    Lambda (A)            n            k
;-----------------------------------------
       1.23980      0.999995   1.48000e-08
       1.26867      0.999995   1.63000e-08
       1.29823      0.999994   1.79000e-08
       1.32848      0.999994   1.97000e-08
       1.35941      0.999994   2.16000e-08
       1.39108      0.999994   2.38000e-08
       1.42349      0.999993   2.61000e-08
       1.45663      0.999993   2.87000e-08
       1.49057      0.999993   3.16000e-08
       1.52529      0.999992   3.47000e-08
       1.56081      0.999992   3.81000e-08
       1.59717      0.999991   4.19000e-08
       1.63437      0.999991   4.60000e-08
       1.67244      0.999991   5.05000e-08
       1.71139      0.999990   5.55000e-08
       1.75125      0.999990   6.09000e-08
       1.79206      0.999989   6.69000e-08
       1.83381      0.999989   7.35000e-08
       1.87652      0.999988   8.06000e-08
       1.92024      0.999988   8.85000e-08
       1.96494      0.999987   9.71000e-08
       2.01070      0.999987   1.07000e-07
       2.05755      0.999986   1.17000e-07
       2.10550      0.999985   1.28000e-07
       2.15453      0.999985   1.41000e-07
       2.20472      0.999984   1.54000e-07
       2.25607      0.999983   1.69000e-07
       2.30862      0.999982   1.86000e-07
       2.36238      0.999981   2.04000e-07
       2.41742      0.999981   2.24000e-07
       2.47371      0.999980   2.45000e-07
       2.53134      0.999979   2.69000e-07
       2.59031      0.999978   2.95000e-07
       2.65062      0.999977   3.23000e-07
       2.71238      0.999975   3.54000e-07
       2.77559      0.999974   3.88000e-07
       2.84019      0.999973   4.25000e-07
       2.90637      0.999972   4.66000e-07
       2.97407      0.999970   5.10000e-07
       3.04335      0.999969   5.59000e-07
       3.11421      0.999968   6.12000e-07
       3.18674      0.999966   6.70000e-07
       3.26100      0.999964   7.34000e-07
       3.33692      0.999963   8.03000e-07
       3.41467      0.999961   8.79000e-07
       3.49426      0.999959   9.62000e-07
       3.57559      0.999957   1.05000e-06
       3.65895      0.999955   1.15000e-06
       3.74415      0.999953   1.26000e-06
       3.83139      0.999951   1.38000e-06
       3.92056      0.999948   1.50000e-06
       4.01191      0.999946   1.65000e-06
       4.10530      0.999943   1.80000e-06
       4.20100      0.999941   1.97000e-06
       4.29889      0.999938   2.15000e-06
       4.50149      0.999932   2.56000e-06
       4.60635      0.999928   2.80000e-06
       4.71353      0.999925   3.06000e-06
       4.82337      0.999921   3.34000e-06
       4.93571      0.999918   3.65000e-06
       5.05072      0.999914   3.98000e-06
       5.16842      0.999910   4.35000e-06
       5.28880      0.999905   4.74000e-06
       5.41185      0.999901   5.18000e-06
       5.53804      0.999896   5.65000e-06
       5.66688      0.999891   6.17000e-06
       5.79888      0.999886   6.73000e-06
       5.93404      0.999880   7.34000e-06
       6.07239      0.999875   8.01000e-06
       6.21360      0.999869   8.73000e-06
       6.35860      0.999862   9.52000e-06
       6.50643      0.999856   1.04000e-05
       6.65807      0.999849   1.13000e-05
       6.81321      0.999842   1.23000e-05
       6.97183      0.999834   1.35000e-05
       7.13431      0.999827   1.47000e-05
       7.30067      0.999819   1.60000e-05
       7.47047      0.999810   1.74000e-05
       7.64459      0.999801   1.90000e-05
       7.82258      0.999792   2.07000e-05
       8.00491      0.999782   2.25000e-05
       8.19107      0.999772   2.46000e-05
       8.38212      0.999762   2.67000e-05
       8.57756      0.999750   2.91000e-05
       8.77734      0.999739   3.17000e-05
       8.98145      0.999727   3.45000e-05
       9.19051      0.999714   3.75000e-05
       9.40454      0.999701   4.08000e-05
       9.62428      0.999688   4.43000e-05
       9.84828      0.999674   4.82000e-05
       10.0772      0.999659   5.23000e-05
       10.3119      0.999644   5.69000e-05
       10.5524      0.999628   6.17000e-05
       10.7978      0.999612   6.70000e-05
       11.0499      0.999595   7.28000e-05
       11.3069      0.999578   7.90000e-05
       11.5707      0.999560   8.57000e-05
       11.8403      0.999541   9.30000e-05
       12.1157      0.999522   0.000101000
       12.3980      0.999502   0.000110000
       12.6873      0.999483   0.000119000
       12.9822      0.999462   0.000129000
       13.2840      0.999442   0.000140000
       13.5943      0.999421   0.000151000
       13.9100      0.999400   0.000164000
       14.2342      0.999380   0.000177000
       14.5670      0.999359   0.000191000
       14.9050      0.999340   0.000207000
       15.2534      0.999322   0.000224000
       15.6087      0.999306   0.000242000
       15.9706      0.999294   0.000261000
       16.3433      0.999286   0.000283000
       16.7247      0.999288   0.000306000
       17.1149      0.999310   0.000330000
       17.5113      0.999394   0.000357000
       17.9214      0.999465   2.56000e-05
       18.3375      0.999278   2.82000e-05
       18.7649      0.999180   3.11000e-05
       19.2009      0.999102   3.43000e-05
       19.6482      0.999031   3.78000e-05
       20.1070      0.998960   4.16000e-05
       20.5742      0.998890   4.56000e-05
       21.0564      0.998830   4.99000e-05
       21.5467      0.998760   5.47000e-05
       22.0487      0.998680   5.99000e-05
       22.5623      0.998610   6.55000e-05
       23.0875      0.998530   0.000716000
       23.5973      0.998860   0.000110000
       23.6242      0.998450   7.83000e-05
       24.1724      0.998370   8.56000e-05
       24.7366      0.998280   9.35000e-05
       25.3124      0.998190   0.000102000
       25.9047      0.998100   0.000112000
       26.5084      0.998000   0.000122000
       27.1232      0.997900   0.000134000
       27.7546      0.997790   0.000146000
       28.4032      0.997680   0.000160000
       29.0624      0.997560   0.000175000
       29.7385      0.997430   0.000191000
       30.4320      0.997310   0.000209000
       31.1429      0.997170   0.000229000
       31.3953      0.998140   0.000200000
       31.8715      0.997030   0.000250000
       32.6092      0.996880   0.000273000
       33.3728      0.996730   0.000296000
       34.1449      0.996570   0.000322000
       34.9436      0.996400   0.000351000
       35.7600      0.996220   0.000381000
       36.5939      0.996030   0.000415000
       37.4449      0.995840   0.000451000
       38.3127      0.995630   0.000491000
       39.2094      0.995420   0.000534000
       40.1230      0.995200   0.000581000
       41.0530      0.994960   0.000632000
       42.0129      0.994720   0.000686000
       42.9889      0.994460   0.000745000
       43.9957      0.995920   0.000890000
       43.9957      0.994190   0.000809000
       45.0182      0.993910   0.000878000
       46.0721      0.993620   0.000952000
       47.1407      0.993310    0.00103000
       48.2412      0.992990    0.00112000
       49.3551      0.992650    0.00121000
       50.5010      0.992290    0.00132000
       51.6799      0.991920    0.00143000
       52.8925      0.991540    0.00155000
       54.1161      0.991130    0.00168000
       55.3729      0.990710    0.00182000
       56.6636      0.990270    0.00197000
       57.9888      0.989800    0.00213000
       59.3490      0.989300    0.00231000
       60.7150      0.988800    0.00250000
       62.1454      0.988300    0.00271000
       63.5795      0.987800    0.00293000
       65.0472      0.987200    0.00317000
       66.5843      0.986600    0.00343000
       67.0162      0.991800    0.00312000
       68.1209      0.986000    0.00371000
       69.7300      0.985300    0.00401000
       71.3349      0.984700    0.00433000
       73.0153      0.984000    0.00468000
       74.6867      0.983200    0.00506000
       76.4365      0.982500    0.00546000
       78.2208      0.981700    0.00590000
       80.0387      0.980900    0.00637000
       81.8890      0.980000    0.00687000
       83.8269      0.979100    0.00741000
       85.7993      0.978200    0.00800000
       87.7424      0.977200    0.00863000
       89.8406      0.976300    0.00932000
       91.9051      0.975200     0.0101000
       94.0668      0.974200     0.0109000
       96.2578      0.973100     0.0117000
       98.4750      0.972000     0.0126000
       100.797      0.970900     0.0136000
       103.145      0.969700     0.0146000
       105.515      0.968500     0.0157000
       107.997      0.967200     0.0169000
       110.499      0.965900     0.0182000
       113.017      0.964600     0.0195000
       113.017      0.983300     0.0117000
       115.653      0.963100     0.0210000
       118.415      0.961600     0.0227000
       121.193      0.960100     0.0245000
       123.980      0.958800     0.0267000
       126.899      0.957500     0.0288000
       129.822      0.956200     0.0312000
       132.883      0.955000     0.0337000
       135.943      0.954200     0.0365000
       139.147      0.953600     0.0392000
       142.342      0.953100     0.0416000
       145.687      0.952600     0.0439000
       149.014      0.951800     0.0463000
       152.497      0.951100     0.0488000
       156.146      0.950300     0.0512000
       159.768      0.949200     0.0538000
       163.347      0.947900     0.0567000
       167.314      0.946600     0.0600000
       171.243      0.945300     0.0639000
       175.113      0.944400     0.0684000
       179.162      0.943800     0.0735000
       183.402      0.944400     0.0796000
       187.564      0.946400     0.0848000
       191.920      0.949200     0.0897000
       196.482      0.952500     0.0935000
       200.940      0.955800     0.0965000
       205.605      0.959300     0.0994000
       210.492      0.963200      0.102000
       215.617      0.968000      0.103000
       220.605      0.973800      0.104000
       225.418      0.989100      0.104000
       230.875      0.974100     0.0802000
       236.152      0.965000     0.0837000
       241.676      0.960000     0.0874000
       413.267      0.869000      0.184000
       427.517      0.861000      0.376000
       442.786      0.844000      0.176000
       459.185      0.749000      0.401000
       476.846      0.662000      0.296000
       495.920      0.558000      0.521000
       495.920      0.470000      0.230000
       506.041      0.440000      0.310000
       516.583      0.430000      0.420000
       523.122      0.420000      0.500000
       525.339      0.430000      0.560000
       529.829      0.430000      0.590000
       532.103      0.440000      0.620000
       534.397      0.450000      0.660000
       536.710      0.460000      0.700000
       537.874      0.470000      0.720000
       539.043      0.480000      0.740000
       540.218      0.500000      0.760000
       541.397      0.510000      0.780000
       543.772      0.550000      0.810000
       548.584      0.620000      0.870000
       553.482      0.700000      0.910000
       558.468      0.800000      0.940000
       563.545      0.910000      0.930000
       568.716      0.990000      0.880000
       573.981       1.04000      0.840000
       579.346       1.08000      0.800000
       590.381       1.14000      0.730000
       604.781       1.18000      0.650000
       619.900       1.20000      0.580000
       635.795       1.21000      0.530000
       652.526       1.19000      0.470000
       666.559       1.17000      0.440000
       670.162       1.15000      0.440000
       673.804       1.14000      0.440000
       677.486       1.13000      0.450000
       688.778       1.11000      0.480000
       700.452       1.13000      0.520000
       704.432       1.14000      0.520000
       708.457       1.16000      0.530000
       712.529       1.18000      0.520000
       716.647       1.19000      0.510000
       733.609       1.20000      0.470000
       755.976       1.16000      0.400000
       765.309       1.12000      0.390000
       770.062       1.09000      0.390000
       774.875       1.06000      0.410000
       779.748       1.02000      0.420000
       784.684      0.990000      0.470000
       789.682      0.980000      0.520000
       799.871       1.00000      0.590000
       810.327       1.04000      0.640000
       821.060       1.08000      0.680000
       832.081       1.12000      0.710000
       843.401       1.17000      0.730000
       849.178       1.19000      0.740000
       855.034       1.22000      0.740000
       860.972       1.25000      0.730000
       866.993       1.27000      0.720000
       873.099       1.30000      0.710000
       879.291       1.32000      0.680000
       885.571       1.32000      0.640000
       888.746       1.32000      0.620000
       891.942       1.32000      0.590000
       895.162       1.31000      0.560000
       898.406       1.29000      0.520000
       901.673       1.24000      0.460000
       904.964       1.15000      0.420000
       908.278       1.05000      0.430000
       911.618      0.950000      0.500000
       914.982      0.880000      0.580000
       918.370      0.840000      0.670000
       921.784      0.820000      0.760000
       925.224      0.810000      0.840000
       928.689      0.800000      0.920000
       932.180      0.800000       1.01000
       935.698      0.800000       1.10000
       939.242      0.810000       1.20000
       942.814      0.840000       1.33000
       946.412      0.910000       1.43000
       950.038      0.970000       1.53000
       953.692       1.04000       1.64000
       957.375       1.13000       1.77000
       961.085       1.26000       1.90000
       964.825       1.42000       2.02000
       968.594       1.64000       2.13000
       972.392       1.92000       2.20000
       976.220       2.24000       2.19000
       980.079       2.57000       2.08000
       983.968       2.89000       1.90000
       991.840       3.34000       1.17000
       999.839       2.93000      0.480000
       1007.97       2.68000      0.330000
       1016.23       2.51000      0.230000
       1033.17       2.28000      0.110000
       1043.60       2.00300       0.00000
       1046.24       1.98500       0.00000
       1052.46       1.95100       0.00000
       1055.15       2.08000     0.0400000
       1055.15       1.93700       0.00000
       1059.66       1.91400   1.60000e-06
       1069.72       1.87500       0.00000
       1078.09       1.84400       0.00000
       1078.09       1.94000   9.44000e-07
       1081.85       1.83300       0.00000
       1094.26       1.79800       0.00000
       1102.04       1.84000       0.00000
       1103.02       1.77700       0.00000
       1113.93       1.75100       0.00000
       1126.07       1.72900       0.00000
       1127.09       1.77000   8.07000e-07
       1127.09       1.72800       0.00000
       1145.84       1.69900       0.00000
       1163.04       1.67700       0.00000
       1178.52       1.65900       0.00000
       1180.76       1.65600       0.00000
       1180.76       1.67000       0.00000
       1197.87       1.63900       0.00000
       1215.49       1.62400   7.74000e-07
       1228.74       1.61400       0.00000
       1239.80       1.60600   7.70000e-07
       1239.80       1.60000       0.00000
       1248.92       1.59900       0.00000
       1275.91       1.58300       0.00000
       1301.49       1.56900       0.00000
       1325.00       1.55800       0.00000
       1349.96       1.54800       0.00000
       1376.94       1.53800       0.00000
       1377.56       1.53000       0.00000
       1399.95       1.53000       0.00000
       1449.89       1.51500       0.00000
       1499.88       1.50300       0.00000
       1549.75       1.49300       0.00000
       1549.75       1.49000       0.00000
       1599.95       1.48400       0.00000
       1699.99       1.46900       0.00000
       1771.14       1.46000       0.00000
       1771.14       1.46100       0.00000
       1799.94       1.45800       0.00000
       1799.94       1.45330       0.00000
       1820.02       1.45160       0.00000
       1840.01       1.45000       0.00000
       1859.89       1.44840       0.00000
       1879.91       1.44690       0.00000
       1899.79       1.44550       0.00000
       1899.79       1.44900       0.00000
       1919.79       1.44410       0.00000
       1939.92       1.44280       0.00000
       1959.85       1.44150       0.00000
       1979.88       1.44030       0.00000
       2000.00       1.43910       0.00000
       2000.00       1.44100       0.00000
       2049.93       1.43630       0.00000
       2099.93       1.43370       0.00000
       2149.82       1.43130       0.00000
       2199.79       1.42910       0.00000
       2250.09       1.42710       0.00000
       2299.76       1.42520       0.00000
       2349.89       1.42350       0.00000
       2399.92       1.42190       0.00000
       2449.71       1.42030       0.00000
       2500.10       1.41890       0.00000
       2549.98       1.41760       0.00000
       2599.71       1.41640       0.00000
       2649.71       1.41520       0.00000
       2699.91       1.41410       0.00000
       2749.61       1.41310       0.00000
       2799.91       1.41210       0.00000
       2850.11       1.41120       0.00000
       2900.12       1.41030       0.00000
       2949.80       1.40950       0.00000
       2999.76       1.40870       0.00000
       3099.50       1.40730       0.00000
       3199.48       1.40600       0.00000
       3299.97       1.40480       0.00000
       3399.51       1.40370       0.00000
       3500.28       1.40280       0.00000
       3599.88       1.40190       0.00000
       3699.79       1.40100       0.00000
       3799.57       1.40030       0.00000
       3899.97       1.39960       0.00000
       3999.35       1.39890       0.00000
       4199.86       1.39780       0.00000
       4399.57       1.39680       0.00000
       4600.37       1.39590       0.00000
       4799.85       1.39510       0.00000
       4999.19       1.39440       0.00000
       5200.50       1.39380       0.00000
       5399.83       1.39330       0.00000
       5599.82       1.39280       0.00000
       5798.88       1.39230       0.00000
       6000.97       1.39190       0.00000
       6199.00       1.39150       0.00000
       6400.62       1.39120       0.00000
       6598.19       1.39080       0.00000
       6800.88       1.39050       0.00000
       7000.56       1.39020       0.00000
       7199.77       1.39000       0.00000
       7401.79       1.38970       0.00000
       7601.47       1.38940       0.00000
       7797.48       1.38920       0.00000
       7998.71       1.38900       0.00000
       8199.74       1.38880       0.00000
       8399.73       1.38860       0.00000
       8597.78       1.38840       0.00000
       8799.15       1.38820       0.00000
       8997.10       1.38800       0.00000
       9197.33       1.38780       0.00000
       9399.54       1.38760       0.00000
       9595.97       1.38750       0.00000
       9800.79       1.38730       0.00000
       9998.39       1.38710       0.00000
       10497.9       1.38670       0.00000
       11000.9       1.38630       0.00000
       11405.7       1.38590       0.00000
       12001.9       1.38550       0.00000
       12499.2       1.38510       0.00000
       12999.9       1.38470       0.00000
       13499.6       1.38440       0.00000
       13999.5       1.38400       0.00000
       14498.9       1.38360       0.00000
       14998.8       1.38320       0.00000
       15499.4       1.38280       0.00000
       15999.5       1.38230       0.00000
       16499.9       1.38190       0.00000
       16999.9       1.38150       0.00000
       17498.9       1.38100       0.00000
       17999.4       1.38060       0.00000
       18499.0       1.38010       0.00000
       18997.9       1.37960       0.00000
       19499.8       1.37910       0.00000
       20000.0       1.37870       0.00000
       20999.3       1.37770       0.00000
       21997.9       1.37660       0.00000
       22997.6       1.37550       0.00000
       23999.2       1.37440       0.00000
       25001.0       1.37310       0.00000
       25997.1       1.37190       0.00000
       26999.1       1.37060       0.00000
       27999.1       1.36930       0.00000
       29001.2       1.36790       0.00000
       29997.6       1.36650       0.00000
       30995.0       1.36500       0.00000
       31994.8       1.36350       0.00000
       32999.7       1.36190       0.00000
       33995.1       1.36020       0.00000
       35002.8       1.35850       0.00000
       35998.8       1.35680       0.00000
       36997.9       1.35500       0.00000
       37995.7       1.35310       0.00000
       38999.7       1.35120       0.00000
       39993.5       1.34930       0.00000
       40998.7       1.34730       0.00000
       41998.6       1.34520       0.00000
       43003.8       1.34310       0.00000
       43995.7       1.34090       0.00000
       45001.8       1.33870       0.00000
       46003.7       1.33640       0.00000
       46997.7       1.33400       0.00000
       47998.4       1.33160       0.00000
       49004.0       1.32910       0.00000
       49991.9       1.32660       0.00000
       50999.6       1.32400       0.00000
       52005.0       1.32130       0.00000
       53005.6       1.31860       0.00000
       53998.3       1.31580       0.00000
       55004.4       1.31300       0.00000
       55998.2       1.31010       0.00000
       57002.3       1.30710       0.00000
       57988.8       1.30410       0.00000
       59010.0       1.30100       0.00000
       60009.7       1.29780       0.00000
       60983.8       1.29460       0.00000
       61990.0       1.29120       0.00000
       62998.0       1.28790       0.00000
       64006.2       1.28440       0.00000
       65013.1       1.28090       0.00000
       65981.9       1.27730       0.00000
       66980.0       1.27360       0.00000
       68008.8       1.26980       0.00000
       68992.8       1.26600       0.00000
       70005.6       1.26210       0.00000
       71008.0       1.25810       0.00000
       71997.7       1.25410       0.00000
       73015.3       1.24990       0.00000
       74017.9       1.24570       0.00000
       75003.0       1.24140       0.00000
       76014.7       1.23690       0.00000
       77006.2       1.23250       0.00000
       77974.8       1.22790       0.00000
       79018.5       1.22320       0.00000
       79987.1       1.21840   0.000600000
       80979.8       1.21360       0.00000
       81997.4       1.20860       0.00000
       82985.3       1.20360       0.00000
       83997.3       1.19840       0.00000
       84976.0       1.19310       0.00000
       85977.8       1.18780       0.00000
       87003.5       1.18230       0.00000
       87991.5       1.17680       0.00000
       89002.1       1.17110       0.00000
       89971.0       1.16530    0.00150000
       91027.9       1.15940       0.00000
       91973.3       1.15330       0.00000
       93008.2       1.14720       0.00000
       93995.5       1.14090       0.00000
       95003.8       1.13450       0.00000
       95959.8       1.12800       0.00000
       97011.0       1.12130       0.00000
       98007.9       1.11450       0.00000
       99025.6       1.10760       0.00000
       99983.9       1.10050    0.00260000
       99983.9       1.11000    0.00810000
       101957.       1.08590       0.00000
       104010.       1.07060       0.00000
       105246.       1.07000     0.0102000
       105966.       1.05470       0.00000
       107997.       1.03810       0.00000
       110009.       1.02080    0.00800000
       111093.       1.01000     0.0131000
       117628.      0.947000     0.0176000
       124992.      0.856000     0.0249000
       128198.      0.810000     0.0284000
       131572.      0.755000     0.0353000
       135128.      0.691000     0.0436000
       142851.      0.508000     0.0774000
       144921.      0.443000     0.0954000
       147053.      0.367000      0.124000
       149248.      0.279000      0.177000
       151509.      0.201000      0.268000
       153840.      0.157000      0.373000
       156244.      0.137000      0.471000
       158725.      0.127000      0.561000
       161285.      0.122000      0.645000
       163930.      0.121000      0.725000
       166662.      0.124000      0.804000
       169487.      0.128000      0.881000
       172410.      0.136000      0.957000
       175435.      0.146000       1.03000
       178568.      0.161000       1.11000
       181816.      0.179000       1.18000
       185183.      0.203000       1.26000
       188678.      0.233000       1.33000
       192306.      0.265000       1.39000
       196078.      0.293000       1.43000
       200000.      0.306000       1.47000
       204082.      0.297000       1.51000
       208335.      0.270000       1.57000
       212768.      0.237000       1.65000
       217394.      0.210000       1.76000
       222226.      0.191000       1.88000
       227278.      0.180000       2.01000
       232564.      0.177000       2.16000
       238103.      0.181000       2.32000
       243911.      0.191000       2.50000
       250010.      0.208000       2.71000
       256422.      0.234000       2.94000
       263171.      0.269000       3.21000
       270286.      0.325000       3.53000
       277795.      0.407000       3.93000
       281709.      0.465000       4.16000
       285734.      0.539000       4.43000
       289876.      0.637000       4.75000
       294140.      0.772000       5.12000
       298459.      0.964000       5.57000
       302981.       1.25000       6.10000
       307643.       1.71000       6.77000
       312450.       2.51000       7.57000
       317409.       3.98000       8.37000
       322529.       6.43000       8.35000
       327816.       8.58000       6.35000
       333280.       8.76000       3.91000
       338928.       8.05000       2.43000
       344772.       7.32000       1.62000
       350821.       6.70000       1.16000
       357085.       6.22000      0.875000
       363578.       5.82000      0.687000
       370311.       5.50000      0.554000
       377298.       5.23000      0.458000
       384553.       5.00000      0.386000
       392094.       4.81000      0.331000
       399936.       4.64000      0.287000
       416599.       4.36000      0.222000
       434712.       4.14000      0.177000
       454472.       3.96000      0.145000
       476114.       3.81000      0.120000
       499919.       3.69000      0.102000
       600097.       3.39000      0.105000
       799871.       3.17000      0.101000
       999839.       3.06700      0.106000
       999839.       3.09000       0.00000
   1.49988e+06       3.06700     0.0650000
   2.00000e+06       3.06700     0.0400000
   2.00000e+06       2.99000       0.00000
   2.50010e+06       3.06700     0.0220000
   2.99976e+06       3.06700     0.0140000
   3.99935e+06       3.06700    0.00850000
   3.99935e+06       2.96000       0.00000
   4.99919e+06       3.06700    0.00630000
   6.00097e+06       3.06700    0.00500000
   2.58399e+07       3.02300    0.00119000
   8.46858e+07       3.02300   0.000620000
   3.05897e+08       3.02300   0.000263000
   6.66201e+10       3.01800   1.60000e-05
   3.33459e+11       3.01800   1.60000e-05
