;  Optical constants for LiNbO3, ordinary ray
; 
;   taken from:
;
;   'Handbook of Optical Constants of Solids', Ed. by Edward D. Palik,
;   Academic Press, Inc., 1985.
;   
;    Lambda (A)            n            k
;-----------------------------------------
       1239.80       1.67000       1.22000
       1271.59       1.88000       1.28000
       1305.05       2.04000       1.17000
       1340.32       2.19000       1.09000
       1377.56       2.32000      0.750000
       1416.91       2.12000      0.450000
       1458.59       1.82000      0.360000
       1502.79       1.58000      0.460000
       1549.75       1.43000      0.590000
       1653.07       1.38000      0.980000
       1771.14       1.54000       1.30000
       1907.38       1.82000       1.48000
       2066.33       2.16000       1.60000
       2156.17       2.36000       1.67000
       2254.18       2.68000       1.75000
       2361.52       3.22000       1.60000
       2479.60       3.62000       1.27000
       2610.11       3.52000      0.430000
       2755.11       3.19000      0.110000
       2917.18       2.91000       0.00000
       3099.50       2.76000       0.00000
       4046.08       2.43170       2.32600
       4358.28       2.39280       2.29320
       4677.96       2.36340       2.26830
       4799.66       2.35410       2.26050
       5085.52       2.33560       2.24480
       5460.47       2.31650       2.22850
       5769.46       2.30400       2.21780
       5789.40       2.30320       2.21710
       5875.27       2.30020       2.21470
       6438.18       2.28350       2.20020
       6677.80       2.27780       2.19530
       7064.79       2.26990       2.18860
       8092.16       2.25410       2.17490
       8716.25       2.24710       2.16880
       9356.28       2.24120       2.16390
       9599.69       2.23930       2.16220
       10139.9       2.23510       2.15840
       10921.4       2.23040       2.15450
       11538.4       2.22710       2.15170
       11579.3       2.22690       2.15150
       12876.5       2.22110       2.14640
       14399.0       2.21510       2.14130
       16381.5       2.20830       2.13560
       19111.8       2.19940       2.12800
       21842.1       2.19120       2.12110
       23998.3       2.18400       2.11510
       26149.5       2.17650       2.10870
       27302.4       2.17240       2.10530
       28972.0       2.16570       2.09990
       30513.6       2.15940       2.09460
       49991.9       2.05000       0.00000
       60009.7       1.97000       0.00000
       70005.6       1.84000       0.00000
       79987.1       1.71000       0.00000
       89971.0       1.52000       0.00000
       99983.9       1.20000       0.00000
       110009.      0.600000       0.00000
       124992.      0.200000       1.24000
       128198.      0.210000       1.43000
       131572.      0.220000       1.56000
       135128.      0.230000       1.74000
       138882.      0.260000       1.94000
       142851.      0.540000       2.30000
       147053.      0.900000       2.51000
       149248.      0.900000       2.60000
       151509.      0.990000       2.52000
       156244.      0.950000       2.52000
       161285.      0.900000       2.88000
       166662.       1.10000       3.63000
       172410.       1.83000       4.62000
       175435.       3.01000       5.30000
       178568.       4.77000       4.55000
       181816.       4.88000       2.97000
       185183.       4.51000       2.10000
       192306.       4.00000       1.24000
       200000.       3.27000      0.840000
       208335.       2.52000      0.590000
       217394.       1.78000      0.620000
       227278.       1.03000       1.44000
       232564.       1.20000       2.11000
       238103.       1.30000       1.92000
       250010.       1.01000       2.45000
       263171.       1.33000       3.36000
       270286.       1.73000       3.74000
       277795.       2.61000       4.10000
       285734.       2.64000       2.83000
       294140.       1.34000       2.96000
       302981.       1.89000       4.75000
       312450.       3.39000       5.52000
       322529.       4.09000       3.04000
       333280.       2.80000       1.96000
       357085.      0.920000       4.34000
       370311.       2.19000       6.84000
       377298.       4.19000       8.34000
       384553.       5.71000       7.91000
       399936.       6.79000       2.94000
       416599.       5.76000       2.68000
       434712.       5.82000       2.31000
       454472.       4.94000       1.21000
       499919.       2.54000       1.57000
       555466.      0.980000       5.09000
       588140.       2.04000       7.36000
       624899.       5.43000       10.1000
       666559.       7.96000       9.92000
       714170.       10.1000       5.68000
       769107.       10.6000       3.06000
       833199.       9.83000       1.67000
       999839.       8.57000      0.700000
   1.24992e+06       7.87000      0.130000
   1.66662e+06       7.34000     0.0700000
   1.66662e+06       7.06000     0.0190000
   2.00000e+06       6.90000    0.00950000
   2.50010e+06       6.85000    0.00600000
   2.50010e+06       6.80000       0.00000
   3.33280e+06       6.70000    0.00450000
   4.99919e+06       6.64000    0.00320000
   9.99839e+06       6.61000    0.00200000
