;  Optical constants for polycrystalline Mg from:
; 
;    W. Hagemann, W. Gudat, and C. Kunz, "Optical constants from far
;    infrared to the x-ray region," J. Opt. Soc. Am. 65, 742 (1975).
;   
;    Lambda (A)            n            k
;-----------------------------------------
      0.24796000       0.99990000    5.3800000e-11
      0.30995000       0.99990000    1.3500000e-10
      0.41326667       0.99990000    4.8000000e-10
      0.61990000       0.99990000    2.0400000e-09
       1.2398000       0.99990000    3.3300000e-08
       1.5497500       0.99990000    8.2700000e-08
       2.0663333       0.99990000    2.7500000e-07
       3.0995000       0.99990000    1.1900000e-06
       6.1990000       0.99990000    1.7500000e-05
       8.2653333       0.99990000    4.7600000e-05
       9.5369231       0.99990000    1.5000000e-05
       9.8396825       0.99990000    8.1500000e-06
       9.9184000       0.99990000    7.0900000e-06
       10.331667       0.99990000    8.9400000e-06
       12.398000       0.99900000    1.8600000e-05
       15.497500       0.99960000    4.4100000e-05
       20.663333       0.99900000    0.00013900000
       24.796000       0.99870000    0.00026600000
       27.551111       0.99840000    0.00037500000
       30.995000       0.99770000    0.00054200000
       35.422857       0.99740000    0.00081100000
       41.326667       0.99630000     0.0012500000
       49.592000       0.99480000     0.0021500000
       61.990000       0.99230000     0.0040700000
       68.877778       0.99110000     0.0053000000
       77.487500       0.98910000     0.0071100000
       82.653333       0.98810000     0.0081600000
       85.503448       0.98710000     0.0088500000
       88.557143       0.98600000      0.010000000
       91.837037       0.94890000      0.011600000
       95.369231       0.98460000      0.013500000
       99.184000       0.98470000      0.015200000
       103.31667       0.98460000      0.016600000
       107.80870       0.98440000      0.017700000
       112.70909       0.98290000      0.019300000
       118.07619       0.98150000      0.022500000
       123.98000       0.98150000      0.026800000
       130.50526       0.98380000      0.031000000
       137.75556       0.98600000      0.033000000
       139.30337       0.98700000      0.033700000
       140.88636       0.98700000      0.033400000
       142.50575       0.98700000      0.033400000
       144.16279       0.98700000      0.033600000
       147.59524       0.98800000      0.034500000
       151.19512       0.98800000      0.035200000
       154.97500       0.98700000      0.036000000
       158.94872       0.98600000      0.037400000
       163.13158       0.98400000      0.041400000
       167.54054       0.98600000      0.047500000
       172.19444       0.99200000      0.052600000
       177.11429        1.0000000      0.053300000
       182.32353        1.0050000      0.050300000
       187.84848        1.0080000      0.045800000
       193.71875        1.0080000      0.043200000
       199.96774        1.0080000      0.041400000
       206.63333        1.0080000      0.040900000
       210.13559        1.0080000      0.041000000
       213.75862        1.0090000      0.040800000
       217.50877        1.0100000      0.040900000
       221.39286        1.0100000      0.041800000
       223.38739        1.0120000      0.041200000
       225.41818        1.0130000      0.040600000
       227.48624        1.0130000      0.039800000
       229.59259        1.0140000      0.040100000
       231.73832        1.0150000      0.040700000
       233.92453        1.0170000      0.039300000
       236.15238        1.0180000      0.033900000
       238.42308        1.0190000      0.037600000
       240.73786        1.0200000      0.037200000
       243.09804        1.0210000      0.035800000
       245.50495        1.0230000      0.037900000
       247.96000        1.0300000      0.041700000
       248.95582        1.0400000      0.041800000
       249.95968        1.0500000      0.033800000
       250.97166        1.0530000      0.010600000
       251.99187        1.0400000     0.0049200000
       253.02041        1.0330000     0.0049200000
       255.62887        1.0230000     0.0049600000
       258.29167        1.0180000     0.0050200000
       269.52174        1.0040000     0.0059700000
       281.77273       0.99700000     0.0068600000
       295.19048       0.98900000     0.0073600000
       309.95000       0.98200000     0.0088400000
       326.26316       0.97500000      0.010200000
       344.38889       0.96700000      0.014100000
       364.64706       0.95900000      0.014100000
       387.43750       0.95000000      0.015400000
       413.26667       0.93900000      0.016900000
       442.78571       0.92400000      0.019600000
       476.84615       0.90600000      0.025200000
       516.58333       0.88500000      0.033000000
       563.54545       0.86100000      0.045400000
       619.90000       0.83300000      0.059200000
       688.77778       0.79800000      0.073100000
       774.87500       0.74100000      0.079200000
       826.53333       0.69200000      0.091600000
       885.57143       0.64400000       0.11100000
       953.69231       0.57700000       0.12700000
       1033.1667       0.47700000       0.14500000
       1078.0870       0.40400000       0.15800000
       1127.0909       0.29300000       0.17600000
       1180.7619       0.11000000       0.29600000
       1239.8000      0.072300000       0.49900000
       1305.0526      0.069100000       0.64700000
       1377.5556      0.071700000       0.78700000
       1458.5882      0.085800000       0.92600000
       1549.7500       0.11500000        1.0600000
       1653.0667       0.15500000        1.1900000
       1698.3562       0.17100000        1.2300000
       1746.1972       0.18400000        1.2700000
       1796.8116       0.19400000        1.3100000
       1850.4478       0.19900000        1.3500000
       1907.3846       0.19700000        1.3900000
       1967.9365       0.18700000        1.4400000
       2032.4590       0.16600000        1.4900000
       2101.3559       0.14000000        1.5600000
       2175.0877       0.12100000        1.6400000
       2254.1818       0.11200000        1.7400000
       2479.6000       0.11100000        2.0000000
       3099.5000       0.13200000        2.6300000
       4132.6667       0.18400000        3.6600000
       6199.0000       0.38200000        5.7400000
       8265.3333       0.79100000        7.9600000
       12398.000        2.9770000        12.800000
       13775.556        4.7760000        14.500000
       15497.500        8.2690000        15.500000
       17711.429        11.200000        10.200000
       19073.846        8.8090000        8.9800000
       20663.333        6.0560000        9.3300000
       22541.818        4.1940000        12.200000
       24796.000        4.5090000        14.700000
       27551.111        5.0560000        16.800000
       30995.000        6.0690000        19.500000
       35422.857        7.5190000        22.200000
       41326.667        9.5160000        25.100000
       49592.000        12.300000        28.800000
       61990.000        15.200000        32.600000
       82653.333        18.900000        37.600000
       123980.00        23.800000        48.800000
       177114.29        30.300000        60.200000
