;  Optical constants for MgF2 - extraordinary ray
; 
;   taken from:
;
;   'Handbook of Optical Constants of Solids II', Ed. by Edward D. Palik,
;   Academic Press, Inc., 1991.
;   
;    Lambda (A)            n            k
;-----------------------------------------
       261.011      0.957000     0.0920000
       263.787      0.956000     0.0960000
       266.624      0.955000     0.0990000
       269.522      0.954000      0.103000
       272.484      0.952000      0.107000
       275.511      0.949000      0.110000
       278.607      0.949000      0.114000
       281.773      0.947000      0.119000
       285.012      0.942000      0.125000
       288.326      0.936000      0.130000
       291.718      0.929000      0.129000
       295.190      0.922000      0.129000
       298.747      0.914000      0.129000
       302.390      0.907000      0.131000
       306.123      0.899000      0.139000
       309.950      0.885000      0.149000
       313.873      0.894000      0.158000
       317.897      0.894000      0.169000
       322.026      0.898000      0.170000
       326.263      0.902000      0.168000
       330.613      0.901000      0.165000
       335.081      0.900000      0.162000
       339.671      0.899000      0.160000
       344.389      0.896000      0.159000
       349.239      0.897000      0.159000
       354.229      0.898000      0.162000
       359.362      0.899000      0.166000
       364.647      0.893000      0.176000
       370.090      0.890000      0.188000
       375.697      0.888000      0.206000
       381.477      0.887000      0.224000
       387.438      0.880000      0.221000
       393.587      0.867000      0.199000
       399.935      0.858000      0.200000
       406.492      0.857000      0.235000
       413.267      0.865000      0.283000
       420.271      0.876000      0.273000
       427.517      0.873000      0.184000
       435.018      0.850000      0.164000
       442.786      0.842000      0.200000
       450.836      0.841000      0.232000
       459.185      0.822000      0.227000
       467.849      0.812000      0.246000
       476.846      0.801000      0.267000
       486.196      0.787000      0.294000
       495.920      0.771000      0.324000
       506.041      0.758000      0.361000
       516.583      0.736000      0.410000
       527.574      0.742000      0.445000
       539.043      0.765000      0.475000
       551.022      0.820000      0.546000
       563.545      0.849000      0.564000
       576.651      0.898000      0.624000
       590.381      0.891000      0.616000
       604.781      0.965000      0.643000
       619.900      0.981000      0.646000
       626.162      0.995000      0.642000
       632.551       1.00000      0.645000
       639.072      0.996000      0.615000
       645.729       1.00100      0.605000
       652.526       1.01200      0.615000
       659.468       1.02100      0.618000
       666.559       1.03400      0.626000
       673.804       1.04800      0.636000
       681.209       1.07200      0.661000
       688.778       1.09300      0.651000
       696.517       1.09500      0.654000
       704.432       1.10300      0.661000
       712.529       1.11400      0.660000
       720.814       1.09000      0.665000
       729.294       1.08000      0.663000
       737.976       1.10800      0.670000
       746.867       1.14300      0.676000
       755.976       1.18000      0.689000
       765.309       1.19500      0.664000
       774.875       1.19600      0.639000
       779.748       1.19500      0.630000
       784.684       1.19500      0.625000
       789.682       1.19300      0.623000
       794.744       1.19100      0.620000
       799.871       1.19000      0.617000
       805.065       1.19600      0.623000
       810.327       1.20900      0.631000
       815.658       1.22800      0.635000
       821.060       1.24800      0.638000
       826.533       1.25600      0.630000
       832.081       1.25700      0.622000
       837.703       1.25700      0.614000
       843.401       1.25700      0.608000
       849.178       1.25800      0.602000
       855.034       1.26200      0.600000
       860.972       1.26800      0.596000
       866.993       1.26800      0.595000
       873.099       1.26000      0.598000
       879.291       1.25000      0.602000
       885.571       1.23700      0.607000
       891.942       1.23400      0.607000
       898.406       1.23100      0.608000
       904.964       1.23600      0.605000
       911.618       1.23900      0.606000
       918.370       1.24200      0.606000
       925.224       1.23500      0.603000
       932.180       1.22500      0.594000
       939.242       1.21500      0.585000
       946.412       1.20200      0.577000
       953.692       1.19200      0.568000
       961.085       1.19200      0.553000
       968.594       1.24000      0.530000
       976.220       1.29700      0.526000
       983.968       1.27200      0.558000
       991.840       1.25800      0.593000
       999.839       1.23200      0.636000
       1007.97       1.21200      0.676000
       1016.23       1.19400      0.717000
       1024.63       1.17700      0.758000
       1033.17       1.17600      0.790000
       1041.85       1.23500      0.828000
       1050.68       1.34300      0.834000
       1059.66       1.47700      0.831000
       1068.79       1.57300      0.822000
       1078.09       1.61700      0.826000
       1087.54       1.64500      0.793000
       1097.17       1.68900      0.640000
       1106.96       1.67100      0.478000
       1116.94       1.59000      0.341000
       1127.09       1.51900      0.197000
       1137.43       1.49000     0.0280000
       1147.96       1.48000       0.00000
       1158.69       1.46900       0.00000
       1169.62       1.46300       0.00000
       1180.76       1.45900       0.00000
       1192.12       1.45600       0.00000
       1203.69       1.45300       0.00000
       1215.49       1.44900       0.00000
       1227.52       1.44600       0.00000
       1239.80       1.44300       0.00000
       1249.92       1.59700       0.00000
       1299.99       1.56700       0.00000
       1399.95       1.52700       0.00000
       1499.88       1.49800       0.00000
       1599.95       1.47800       0.00000
       1699.99       1.46500       0.00000
       1780.04       1.45365       0.00000
       1849.90       1.44797       0.00000
       2000.00       1.43657       0.00000
       2099.93       1.43085       0.00000
       2199.79       1.42608       0.00000
       2299.76       1.42204       0.00000
       2399.92       1.41859       0.00000
       2500.10       1.41562       0.00000
       2599.71       1.41303       0.00000
       2699.91       1.41077       0.00000
       2799.91       1.40877       0.00000
       2900.12       1.40700       0.00000
       2999.76       1.40543       0.00000
       3099.50       1.40402       0.00000
       3199.48       1.40275       0.00000
       3299.97       1.40160       0.00000
       3399.51       1.40056       0.00000
       3500.28       1.39961       0.00000
       3599.88       1.39875       0.00000
       3699.79       1.39796       0.00000
       3799.57       1.39723       0.00000
       3899.97       1.39656       0.00000
       3999.35       1.39594       0.00000
       4199.86       1.39484       0.00000
       4399.57       1.39389       0.00000
       4600.37       1.39306       0.00000
       4799.85       1.39233       0.00000
       4999.19       1.39168       0.00000
       5200.50       1.39111       0.00000
       5399.83       1.39059       0.00000
       5599.82       1.39013       0.00000
       5798.88       1.38971       0.00000
       6000.97       1.38932       0.00000
       6199.00       1.38897       0.00000
       6400.62       1.38865       0.00000
       6598.19       1.38835       0.00000
       6800.88       1.38808       0.00000
       7000.56       1.38782       0.00000
       7199.77       1.38758       0.00000
       7401.79       1.38735       0.00000
       7601.47       1.38714       0.00000
       7797.48       1.38693       0.00000
       7998.71       1.38674       0.00000
       8199.74       1.38656       0.00000
       8399.73       1.38639       0.00000
       8597.78       1.38622       0.00000
       8799.15       1.38606       0.00000
       8997.10       1.38590       0.00000
       9197.33       1.38575       0.00000
       9399.54       1.38561       0.00000
       9595.97       1.38546       0.00000
       9800.79       1.38533       0.00000
       9998.39       1.38519       0.00000
       10204.1       1.38506       0.00000
       10418.5       1.38492       0.00000
       10642.1       1.38478       0.00000
       10865.9       1.38464       0.00000
       11109.3       1.38449       0.00000
       11363.9       1.38434       0.00000
       11630.4       1.38418       0.00000
       11909.7       1.38402       0.00000
       12190.8       1.38385       0.00000
       12499.2       1.38367       0.00000
       12819.8       1.38349       0.00000
       13157.2       1.38329       0.00000
       13512.8       1.38309       0.00000
       13888.2       1.38287       0.00000
       14285.1       1.38265       0.00000
       14705.3       1.38240       0.00000
       15150.9       1.38214       0.00000
       15624.4       1.38186       0.00000
       16128.5       1.38156       0.00000
       16666.2       1.38124       0.00000
       17241.0       1.38088       0.00000
       17856.8       1.38049       0.00000
       18518.3       1.38007       0.00000
       19230.7       1.37960       0.00000
       20000.0       1.37907       0.00000
       20408.2       1.37879       0.00000
       20833.5       1.37849       0.00000
       21276.8       1.37817       0.00000
       21739.4       1.37783       0.00000
       22222.6       1.37747       0.00000
       22727.8       1.37708       0.00000
       23256.4       1.37667       0.00000
       23810.3       1.37623       0.00000
       24391.1       1.37576       0.00000
       25001.0       1.37525       0.00000
       25642.2       1.37471       0.00000
       26317.1       1.37412       0.00000
       27028.6       1.37348       0.00000
       27779.5       1.37279       0.00000
       28573.4       1.37204       0.00000
       29414.0       1.37122       0.00000
       30298.1       1.37033       0.00000
       31245.0       1.36934       0.00000
       32252.9       1.36827       0.00000
       33328.0       1.36707       0.00000
       34477.2       1.36575       0.00000
       35708.5       1.36429       0.00000
       37031.1       1.36265       0.00000
       38455.3       1.36080       0.00000
       39993.5       1.35873       0.00000
       41659.9       1.35637       0.00000
       43471.2       1.35369       0.00000
       45447.2       1.35060       0.00000
       47611.4       1.34704       0.00000
       49991.9       1.34288       0.00000
       51273.8       1.34054       0.00000
       52623.1       1.33799       0.00000
       54045.3       1.33521       0.00000
       55546.6       1.33217       0.00000
       57133.6       1.32885       0.00000
       58814.0       1.32518       0.00000
       60596.3       1.32114       0.00000
       62489.9       1.31666       0.00000
       64505.7       1.31168       0.00000
       66655.9       1.30611       0.00000
       68954.4       1.29986       0.00000
       71417.0       1.29280       0.00000
       74062.1       1.28800       0.00000
       76910.7       1.27900       0.00000
       79987.1       1.26900       0.00000
       83319.9       1.25700       0.00000
       86942.5       1.24300       0.00000
       90894.4       1.22700       0.00000
       95222.7       1.20800       0.00000
       99983.9       1.18000       0.00000
       102041.       1.17000       0.00000
       104185.       1.16000       0.00000
       106421.       1.15000       0.00000
       108659.       1.13000       0.00000
       111093.       1.12000       0.00000
       113639.       1.10000       0.00000
       116304.       1.08000       0.00000
       119097.       1.06000       0.00000
       121908.       1.04000       0.00000
       124980.       1.01000       0.00000
       128211.      0.980000       0.00000
       131614.      0.940000       0.00000
       135202.      0.890000       0.00000
       138835.      0.840000    0.00720000
       142834.      0.780000     0.0120000
       147070.      0.690000     0.0210000
       151565.      0.580000     0.0390000
       156146.      0.430000     0.0840000
       161222.      0.220000      0.260000
       166640.      0.140000      0.530000
       172434.      0.140000      0.760000
       178646.      0.160000      0.950000
       185045.      0.150000       1.10000
       192217.      0.140000       1.40000
       199968.      0.150000       1.70000
       203914.      0.170000       1.80000
       208370.      0.190000       2.00000
       212659.      0.230000       2.20000
       217509.      0.270000       2.50000
       222186.      0.340000       2.80000
       227070.      0.460000       3.20000
       232608.      0.660000       3.70000
       237965.       1.08000       4.40000
       244055.       2.19000       5.50000
       249960.       5.09000       5.50000
       256157.       6.07000       2.50000
       263227.       5.15000       1.10000
       270109.       4.45000      0.620000
       277982.       3.98000      0.400000
       285668.       3.65000      0.280000
       293791.       3.41000      0.210000
       303130.       3.22000      0.160000
       312292.       3.07000      0.130000
       322865.       2.95000      0.110000
       333280.       2.85000     0.0900000
       344389.       2.76000     0.0760000
       357291.       2.69000     0.0650000
       370090.       2.63000     0.0570000
       385031.       2.57000     0.0500000
       399936.       2.52000     0.0440000
       416040.       2.48000     0.0390000
       435018.       2.44000     0.0340000
       454139.       2.41000     0.0310000
       476846.       2.38000     0.0270000
       499919.       2.35000     0.0250000
       525339.       2.33000     0.0220000
       555964.       2.31000     0.0200000
       587583.       2.29000     0.0180000
       626162.       2.27000     0.0160000
       666559.       2.25000     0.0150000
       712529.       2.24000     0.0130000
       770062.       2.22000     0.0120000
       832081.       2.21000     0.0110000
       911618.       2.20000    0.00950000
       999839.       2.19000    0.00850000
   1.10696e+06       2.18000    0.00750000
   1.25232e+06       2.18000    0.00650000
   1.42506e+06       2.17000    0.00560000
   1.67541e+06       2.17000    0.00470000
   1.99968e+06       2.16000    0.00390000
   2.47960e+06       2.16000    0.00310000
   3.35081e+06       2.15000    0.00230000
   4.27517e+06       2.19000    0.00280000
   4.95920e+06       2.15000    0.00150000
   5.90381e+06       2.18100    0.00170000
   6.52526e+06       2.15000    0.00110000
   1.03317e+07       2.17300   0.000800000
   1.03317e+07       2.15000   0.000760000
   2.06633e+07       2.15000   0.000380000
