;  Optical constants for MgF2 - ordinary ray
; 
;   taken from:
;
;   'Handbook of Optical Constants of Solids II', Ed. by Edward D. Palik,
;   Academic Press, Inc., 1991.
;   
;    Lambda (A)            n            k
;-----------------------------------------
       149.373      0.906000     0.0460000
       157.936      0.912000     0.0700000
       161.222      0.906000     0.0640000
       164.212      0.906000     0.0810000
       167.089      0.902000     0.0830000
       171.480      0.918000     0.0950000
       180.993      0.902000     0.0550000
       187.848      0.915000     0.0730000
       190.738      0.917000     0.0760000
       193.719      0.919000     0.0790000
       196.794      0.921000     0.0830000
       199.968      0.923000     0.0900000
       203.246      0.924000     0.0950000
       206.633      0.926000     0.0960000
       210.136      0.926000     0.0930000
       213.759      0.925000     0.0900000
       217.509      0.925000     0.0920000
       221.393      0.913000     0.0940000
       225.418      0.936000      0.165000
       229.593      0.940000      0.103000
       233.925      0.934000     0.0980000
       238.423      0.930000     0.0980000
       243.098      0.927000      0.100000
       247.960      0.925000      0.103000
       253.020      0.922000      0.107000
       258.292      0.920000      0.111000
       261.011      0.920000      0.113000
       263.787      0.919000      0.115000
       266.624      0.919000      0.118000
       269.522      0.919000      0.120000
       272.484      0.918000      0.122000
       275.511      0.918000      0.125000
       278.607      0.918000      0.128000
       281.773      0.918000      0.131000
       285.012      0.918000      0.134000
       288.326      0.918000      0.137000
       291.718      0.918000      0.142000
       295.190      0.918000      0.145000
       298.747      0.918000      0.150000
       302.390      0.919000      0.154000
       306.123      0.919000      0.159000
       309.950      0.919000      0.163000
       313.873      0.919000      0.167000
       317.897      0.920000      0.171000
       322.026      0.921000      0.172000
       326.263      0.922000      0.173000
       330.613      0.923000      0.174000
       335.081      0.924000      0.175000
       339.671      0.921000      0.175000
       344.389      0.925000      0.175000
       349.239      0.925000      0.175000
       354.229      0.925000      0.175000
       359.362      0.918000      0.177000
       364.647      0.904000      0.179000
       370.090      0.898000      0.183000
       375.697      0.893000      0.190000
       381.477      0.891000      0.200000
       387.438      0.897000      0.210000
       393.587      0.904000      0.219000
       399.935      0.910000      0.228000
       406.492      0.910000      0.232000
       413.267      0.907000      0.228000
       420.271      0.898000      0.224000
       427.517      0.885000      0.221000
       435.018      0.875000      0.234000
       442.786      0.865000      0.254000
       450.836      0.855000      0.264000
       459.185      0.842000      0.272000
       467.849      0.824000      0.282000
       476.846      0.805000      0.308000
       486.196      0.789000      0.336000
       495.920      0.779000      0.384000
       506.041      0.769000      0.443000
       516.583      0.788000      0.524000
       527.574      0.816000      0.610000
       539.043      0.856000      0.666000
       551.022      0.900000      0.729000
       563.545      0.946000      0.771000
       576.651       1.01200      0.807000
       590.381       1.10200      0.819000
       604.781       1.18400      0.805000
       619.900       1.26600      0.767000
       688.778       1.32200      0.671000
       696.517       1.33700      0.658000
       704.432       1.34700      0.657000
       712.529       1.35600      0.660000
       720.814       1.35900      0.665000
       729.294       1.35400      0.661000
       737.976       1.34800      0.605000
       746.867       1.34600      0.631000
       755.976       1.36900      0.606000
       765.309       1.38700      0.575000
       774.875       1.43500      0.547000
       779.748       1.44900      0.539000
       784.684       1.45700      0.533000
       789.682       1.46500      0.528000
       794.744       1.47400      0.529000
       799.871       1.48300      0.529000
       805.065       1.49000      0.531000
       810.327       1.49500      0.533000
       815.658       1.50000      0.536000
       821.060       1.50500      0.538000
       826.533       1.50800      0.533000
       832.081       1.51000      0.520000
       837.703       1.51200      0.510000
       843.401       1.51300      0.501000
       849.178       1.50800      0.501000
       855.034       1.49800      0.502000
       860.972       1.48800      0.504000
       866.993       1.48100      0.514000
       873.099       1.47000      0.518000
       879.291       1.47300      0.517000
       885.571       1.49600      0.507000
       891.942       1.52000      0.496000
       898.406       1.54100      0.484000
       904.964       1.56100      0.473000
       911.618       1.57300      0.463000
       918.370       1.58400      0.453000
       925.224       1.58800      0.444000
       932.180       1.58500      0.448000
       939.242       1.56200      0.453000
       946.412       1.55500      0.454000
       953.692       1.56100      0.429000
       961.085       1.56600      0.393000
       968.594       1.57900      0.357000
       976.220       1.57400      0.332000
       983.968       1.50100      0.329000
       991.840       1.40900      0.364000
       999.839       1.33000      0.409000
       1007.97       1.26900      0.451000
       1016.23       1.23100      0.491000
       1024.63       1.20700      0.542000
       1033.17       1.35100      0.723000
       1041.85       1.60300      0.953000
       1050.68       1.75900       1.07300
       1059.66       1.87200       1.02400
       1068.79       2.20100      0.807000
       1078.09       2.25800      0.683000
       1087.54       2.24500      0.524000
       1097.17       2.21900      0.332000
       1106.96       2.12300      0.220000
       1116.94       2.01000      0.110000
       1127.09       1.95600     0.0580000
       1137.43       1.90400       0.00000
       1147.96       1.88300       0.00000
       1158.69       1.81200       0.00000
       1169.62       1.77300       0.00000
       1180.76       1.73400       0.00000
       1192.12       1.69400       0.00000
       1203.69       1.66000       0.00000
       1215.49       1.63000       0.00000
       1227.52       1.61500       0.00000
       1239.80       1.60100       0.00000
       1249.92       1.58800       0.00000
       1299.99       1.55500       0.00000
       1399.95       1.51300       0.00000
       1499.88       1.48400       0.00000
       1599.95       1.46400       0.00000
       1699.99       1.45100       0.00000
       1780.04       1.43975       0.00000
       1799.94       1.44000       0.00000
       1849.90       1.43424       0.00000
       1899.79       1.43000       0.00000
       2000.00       1.42309       0.00000
       2099.93       1.41754       0.00000
       2199.79       1.41291       0.00000
       2299.76       1.40900       0.00000
       2399.92       1.40567       0.00000
       2500.10       1.40280       0.00000
       2599.71       1.40030       0.00000
       2699.91       1.39812       0.00000
       2799.91       1.39620       0.00000
       2900.12       1.39450       0.00000
       2999.76       1.39298       0.00000
       3099.50       1.39162       0.00000
       3199.48       1.39040       0.00000
       3299.97       1.38930       0.00000
       3399.51       1.38830       0.00000
       3500.28       1.38739       0.00000
       3599.88       1.38656       0.00000
       3699.79       1.38580       0.00000
       3799.57       1.38510       0.00000
       3899.97       1.38446       0.00000
       3999.35       1.38387       0.00000
       4199.86       1.38281       0.00000
       4399.57       1.38189       0.00000
       4600.37       1.38110       0.00000
       4799.85       1.38040       0.00000
       4999.19       1.37978       0.00000
       5200.50       1.37923       0.00000
       5399.83       1.37873       0.00000
       5599.82       1.37829       0.00000
       5798.88       1.37789       0.00000
       6000.97       1.37752       0.00000
       6199.00       1.37718       0.00000
       6400.62       1.37688       0.00000
       6598.19       1.37659       0.00000
       6800.88       1.37633       0.00000
       7000.56       1.37608       0.00000
       7199.77       1.37585       0.00000
       7401.79       1.37563       0.00000
       7601.47       1.37543       0.00000
       7797.48       1.37524       0.00000
       7998.71       1.37506       0.00000
       8199.74       1.37488       0.00000
       8399.73       1.37472       0.00000
       8597.78       1.37456       0.00000
       8799.15       1.37440       0.00000
       8997.10       1.37426       0.00000
       9197.33       1.37411       0.00000
       9399.54       1.37398       0.00000
       9595.97       1.37384       0.00000
       9800.79       1.37371       0.00000
       9998.39       1.37358       0.00000
       10204.1       1.37346       0.00000
       10418.5       1.37333       0.00000
       10642.1       1.37319       0.00000
       10865.9       1.37306       0.00000
       11109.3       1.37292       0.00000
       11363.9       1.37277       0.00000
       11630.4       1.37263       0.00000
       11909.7       1.37247       0.00000
       12190.8       1.37231       0.00000
       12499.2       1.37215       0.00000
       12819.8       1.37197       0.00000
       13157.2       1.37179       0.00000
       13512.8       1.37160       0.00000
       13888.2       1.37140       0.00000
       14285.1       1.37118       0.00000
       14705.3       1.37096       0.00000
       15150.9       1.37071       0.00000
       15624.4       1.37045       0.00000
       16128.5       1.37017       0.00000
       16666.2       1.36986       0.00000
       17241.0       1.36953       0.00000
       17856.8       1.36917       0.00000
       18518.3       1.36877       0.00000
       19230.7       1.36833       0.00000
       20000.0       1.36784       0.00000
       20408.2       1.36757       0.00000
       20833.5       1.36729       0.00000
       21276.8       1.36699       0.00000
       21739.4       1.36667       0.00000
       22222.6       1.36633       0.00000
       22727.8       1.36597       0.00000
       23256.4       1.36559       0.00000
       23810.3       1.36518       0.00000
       24391.1       1.36474       0.00000
       25001.0       1.36426       0.00000
       25642.2       1.36375       0.00000
       26317.1       1.36320       0.00000
       27028.6       1.36261       0.00000
       27779.5       1.36196       0.00000
       28573.4       1.36126       0.00000
       29414.0       1.36049       0.00000
       30298.1       1.35966       0.00000
       31245.0       1.35874       0.00000
       32252.9       1.35773       0.00000
       33328.0       1.35662       0.00000
       34477.2       1.35539       0.00000
       35708.5       1.35402       0.00000
       37031.1       1.35249       0.00000
       38455.3       1.35077       0.00000
       39993.5       1.34883       0.00000
       41659.9       1.34663       0.00000
       43471.2       1.34412       0.00000
       45447.2       1.34125       0.00000
       47611.4       1.33792       0.00000
       49991.9       1.33404   4.20000e-07
       51273.8       1.33186   6.00000e-07
       52623.1       1.32948   8.50000e-07
       54045.3       1.32689   1.20000e-06
       55546.6       1.32406   1.70000e-06
       57133.6       1.32096   2.50000e-06
       58814.0       1.31754   3.60000e-06
       60596.3       1.31378   5.10000e-06
       62489.9       1.30961   7.40000e-06
       64505.7       1.30497   1.10000e-05
       66655.9       1.29978   1.60000e-05
       68954.4       1.29396   2.40000e-05
       71417.0       1.28740   3.70000e-05
       74062.1       1.28100   5.70000e-05
       76910.7       1.27300   8.60000e-05
       79987.1       1.26400   0.000130000
       83319.9       1.25200   0.000190000
       86942.5       1.24000   0.000280000
       90894.4       1.22400   0.000440000
       95222.7       1.20600   0.000710000
       99983.9       1.18000    0.00120000
       102041.       1.17000    0.00150000
       104185.       1.16000    0.00190000
       106421.       1.15000    0.00240000
       108659.       1.14000    0.00300000
       111093.       1.12000    0.00370000
       113639.       1.11000    0.00460000
       116304.       1.09000    0.00570000
       119097.       1.07000    0.00690000
       121908.       1.04000    0.00840000
       124980.       1.02000     0.0100000
       128211.      0.990000     0.0120000
       131614.      0.950000     0.0150000
       135202.      0.910000     0.0180000
       138835.      0.860000     0.0220000
       142834.      0.790000     0.0290000
       147070.      0.710000     0.0410000
       151565.      0.610000     0.0620000
       156146.      0.470000      0.110000
       161222.      0.280000      0.240000
       166640.      0.170000      0.500000
       172434.      0.140000      0.730000
       178646.      0.140000      0.960000
       185045.      0.140000       1.20000
       192217.      0.150000       1.50000
       199968.      0.170000       1.90000
       203914.      0.210000       2.20000
       208370.      0.270000       2.50000
       212659.      0.420000       3.10000
       217509.      0.860000       4.00000
       222186.       3.11000       5.30000
       227070.       4.97000       1.80000
       232608.       3.58000      0.680000
       237965.       2.59000      0.580000
       244055.       2.70000       2.20000
       249960.       3.30000      0.390000
       256157.       2.74000      0.170000
       263227.       2.43000      0.120000
       270109.       2.21000     0.0910000
       277982.       2.02000     0.0780000
       285668.       1.84000     0.0700000
       293791.       1.66000     0.0680000
       303130.       1.46000     0.0710000
       312292.       1.20000     0.0830000
       322865.      0.810000      0.130000
       333280.      0.180000      0.640000
       344389.      0.110000       1.30000
       357291.      0.110000       2.00000
       370090.      0.150000       2.80000
       385031.      0.320000       4.30000
       399936.       3.25000       9.90000
       416040.       6.19000      0.490000
       435018.       4.43000      0.140000
       454139.       3.76000     0.0720000
       476846.       3.40000     0.0450000
       499919.       3.16000     0.0320000
       525339.       2.99000     0.0240000
       555964.       2.87000     0.0190000
       587583.       2.78000     0.0150000
       626162.       2.70000     0.0130000
       666559.       2.64000     0.0110000
       712529.       2.59000    0.00930000
       770062.       2.54000    0.00800000
       832081.       2.51000    0.00700000
       911618.       2.48000    0.00610000
       999839.       2.45000    0.00520000
   1.10696e+06       2.43000    0.00450000
   1.25232e+06       2.41000    0.00390000
   1.42506e+06       2.39000    0.00330000
   1.67541e+06       2.38000    0.00280000
   1.99968e+06       2.37000    0.00230000
   2.47960e+06       2.36000    0.00180000
   3.35081e+06       2.35000    0.00130000
   4.27517e+06       2.35400    0.00240000
   4.95920e+06       2.35000   0.000870000
   5.90381e+06       2.34500    0.00140000
   6.52526e+06       2.34000   0.000650000
   1.03317e+07       2.33500   0.000700000
   1.03317e+07       2.34000   0.000430000
   2.06633e+07       2.34000   0.000220000
