;  Optical constants for in-situ sputtered Mo
; 
;   taken from:
;
;   C. Tarrio et al, App. Opt. 37, 4100, 1998.
;   
;    Lambda (A)            n            k
;-----------------------------------------
      88.5571      0.972300    0.00480000
      95.3692      0.967400    0.00489000
      103.317      0.961200    0.00522000
      112.709      0.953300    0.00581500
      130.505      0.931300    0.00623000
      137.756      0.920300    0.00758500
      145.859      0.906800     0.0105600
      154.975      0.881200     0.0160000
      165.307      0.865000     0.0278000
      173.600      0.836900     0.0395000
      177.114      0.836500     0.0477000
      177.114      0.837500     0.0440000
      178.481      0.825500     0.0491000
      183.359      0.812700     0.0602500
      188.239      0.803100     0.0727000
      198.010      0.783000      0.101140
      202.900      0.772000      0.118800
      206.633      0.778300      0.129700
      207.790      0.768000      0.137700
      212.681      0.764000      0.158500
      217.570      0.764900      0.177600
      222.469      0.765700      0.193800
      227.361      0.770700      0.206500
      232.259      0.774200      0.223700
      237.160      0.785000      0.236200
      242.059      0.792200      0.243600
      246.962      0.799000      0.253600
      247.960      0.811600      0.257000
      251.859      0.806300      0.265000
      256.762      0.813400      0.262400
      261.672      0.817500      0.272100
      266.578      0.821000      0.280800
      271.481      0.822700      0.288600
      276.389      0.825600      0.294900
      281.312      0.834400      0.294900
      286.222      0.838900      0.286800
      291.129      0.847100      0.285100
      296.050      0.850900      0.274700
      300.973      0.853500      0.254300
      305.882      0.850900      0.221300
      309.950      0.859000      0.162000
      310.797      0.851500      0.199400
      315.728      0.854300      0.166900
      320.652      0.860900      0.159500
      325.569      0.864800      0.145300
      330.499      0.871000      0.138800
      335.426      0.876000      0.129000
