;  Optical constants for evaporated Mo
; 
;   taken from:
;
;   D. L. Windt, Webster C. Cash, Jr., M. Scott, P. Arendt, B. Newnam,
;   R. F. Fisher, and A. B. Swartzlander, 'Optical Constants for thin films
;   of Ti, Zr, Nb, Mo, Ru, Rh, Pd, Ag, Hf, Ta, W, Re, Ir, Os, Pt, and Au
;   from 24 to 1216 A', App. Opt., 27, 246, 1988.
;   
;    Lambda (A)            n            k
;-----------------------------------------
   23.620      .99744	.00164
   31.600      .9974	.00194
   44.700      .99724	.00439
   67.600      .9889	.00197
   114.00      .9581	.00501
   135.50      .9413	.00604
   171.40      .876	.0282	
   243.03      .813	.169	
   256.32      .832	.168
   303.78      .876	.250
   327.00      .912	.255
   356.80      .891	.179
   379.31      .832	.157
   405.85      .797	.17	
   447.81      .749	.203
   460.73      .705	.234
   489.50      .695	.325
   539.09      .673	.464
   584.33      .672	.570
   616.29      .712	.608
   671.39      .798	.779
   718.48      .845	.734
   735.90      .902	.807
   743.72      .909	.780
   834.46      .968	.778
   878.00      1.04	.807
   919.78      1.08	.838
   932.05      1.03	.791
   988.78      1.08	.786
   1025.8      1.15	.759
   1048.2      1.11	.745
   1066.7      1.17	.725
   1085.7      1.11	.722
   1135.0      1.08	.677
   1200.7      1.10	.757
   1215.7      1.09	.773
