;  Optical constants for sputtered Mo
; 
;   taken from:
;
;   D. L. Windt, unpublished
;   
;    Lambda (A)            n            k
;-----------------------------------------
      120.000      .945420   0.00793182
      120.000      .945420   0.00793182
      120.500      .944612   0.00776900
      121.000      .944204   0.00762409
      121.500      .943675   0.00743397
      122.000      .943266   0.00720506
      122.500      .942744   0.00680870
      123.000      .942195   0.00650828
      123.500      .941508   0.00631045
      124.000      .940737   0.00609895
      124.500      .939849   0.00605534
      125.000      .938892   0.00609956
      125.500      .937741   0.00621606
      126.000      .936636   0.00623859
      126.500      .935534   0.00653503
      127.000      .934392   0.00708519
      127.500      .933235   0.00762629
      128.000      .932264   0.00809414
      128.500      .931191   0.00870002
      129.000      .930111   0.00901453
      129.500      .929185   0.00881160
      130.000      .928324   0.00887172
      130.500      .927415   0.00896304
      131.000      .926625   0.00899456
      131.500      .925924   0.00924530
      132.000      .925172   0.00947488
      132.500      .924378   0.00951670
      133.000      .923576   0.00960878
      133.500      .922768   0.00959035
      134.000      .921899   0.00934623
      134.500      .920943   0.00942631
      135.000      .920059   0.00950516
      135.500      .919178   0.00951209
      136.000      .918303   0.00959548
      137.000      .917390   0.00959073
      137.500      .916624   0.00946125
      138.000      .915847   0.00918662
      138.500      .915025   0.00904052
      139.000      .914181   0.00893789
      139.500      .913427   0.00916610
      140.000      .912512   0.00950802
      140.500      .911587   0.00995073
      141.000      .910741    0.0102266
      141.500      .909854    0.0105278
      142.000      .908919    0.0107898
      142.500      .908154    0.0108544
      143.000      .907394    0.0111021
      143.500      .906662    0.0113548
      145.000      .906021    0.0114970
      145.500      .905366    0.0115780
      146.000      .904570    0.0118647
      146.500      .903747    0.0118557
      147.000      .902756    0.0119882
      147.500      .901670    0.0122715
      148.000      .900569    0.0125644
      148.500      .899612    0.0131061
      149.000      .898462    0.0138490
      149.500      .897988    0.0151067
      150.000      .896105    0.0155185
