;  Optical constants for NaCl
; 
;   taken from:
;
;   'Handbook of Optical Constants of Solids', Ed. by Edward D. Palik,
;   Academic Press, Inc., 1985.
;   
;    Lambda (A)            n            k
;-----------------------------------------
       476.846      0.830000      0.150000
       484.297      0.820000      0.170000
       488.110      0.830000      0.170000
       491.984      0.830000      0.180000
       495.920      0.830000      0.180000
       497.912      0.820000      0.180000
       501.943      0.820000      0.180000
       510.206      0.810000      0.210000
       514.440      0.810000      0.220000
       516.583      0.820000      0.230000
       518.745      0.820000      0.230000
       520.924      0.830000      0.240000
       529.829      0.850000      0.230000
       532.103      0.850000      0.220000
       534.397      0.850000      0.210000
       536.710      0.830000      0.210000
       539.043      0.820000      0.210000
       543.772      0.800000      0.230000
       548.584      0.790000      0.260000
       551.022      0.800000      0.270000
       553.482      0.800000      0.280000
       555.964      0.810000      0.290000
       558.468      0.820000      0.300000
       563.545      0.830000      0.310000
       566.119      0.840000      0.320000
       568.716      0.850000      0.320000
       576.651      0.870000      0.320000
       587.583      0.880000      0.310000
       593.206      0.880000      0.300000
       596.058      0.880000      0.300000
       601.845      0.880000      0.300000
       604.781      0.870000      0.310000
       613.762      0.870000      0.330000
       616.816      0.880000      0.330000
       619.900      0.880000      0.340000
       623.015      0.890000      0.340000
       626.162      0.910000      0.340000
       632.551      0.920000      0.320000
       635.795      0.920000      0.310000
       639.072      0.910000      0.300000
       642.383      0.900000      0.290000
       645.729      0.880000      0.290000
       649.110      0.870000      0.300000
       655.979      0.860000      0.330000
       659.468      0.860000      0.340000
       662.995      0.870000      0.350000
       666.559      0.880000      0.350000
       670.162      0.890000      0.350000
       673.804      0.900000      0.350000
       677.486      0.900000      0.340000
       681.209      0.900000      0.330000
       688.778      0.890000      0.330000
       708.457      0.850000      0.330000
       716.647      0.840000      0.340000
       725.029      0.820000      0.360000
       729.294      0.820000      0.370000
       733.609      0.820000      0.380000
       737.976      0.820000      0.380000
       742.395      0.820000      0.380000
       751.394      0.800000      0.380000
       755.976      0.790000      0.390000
       760.614      0.770000      0.400000
       765.309      0.740000      0.430000
       770.062      0.740000      0.450000
       779.748      0.740000      0.490000
       789.682      0.740000      0.530000
       799.871      0.750000      0.570000
       805.065      0.760000      0.590000
       810.327      0.760000      0.600000
       815.658      0.770000      0.620000
       832.081      0.770000      0.670000
       837.703      0.760000      0.710000
       843.401      0.780000      0.750000
       846.280      0.790000      0.770000
       849.178      0.810000      0.780000
       852.096      0.820000      0.790000
       855.034      0.840000      0.800000
       857.993      0.850000      0.810000
       860.972      0.860000      0.820000
       866.993      0.880000      0.840000
       870.035      0.890000      0.850000
       873.099      0.910000      0.860000
       879.291      0.940000      0.880000
       885.571      0.980000      0.890000
       891.942       1.02000      0.900000
       898.406       1.06000      0.900000
       904.964       1.10000      0.890000
       918.370       1.16000      0.850000
       932.180       1.20000      0.810000
       946.412       1.21000      0.740000
       953.692       1.19000      0.710000
       957.375       1.17000      0.700000
       961.085       1.16000      0.700000
       964.825       1.14000      0.710000
       968.594       1.12000      0.710000
       976.220       1.10000      0.750000
       983.968       1.10000      0.810000
       987.888       1.14000      0.830000
       995.823       1.15000      0.840000
       999.839       1.17000      0.850000
       1003.89       1.19000      0.850000
       1007.97       1.21000      0.850000
       1016.23       1.24000      0.830000
       1024.63       1.24000      0.790000
       1033.17       1.22000      0.790000
       1041.85       1.20000      0.790000
       1050.68       1.16000      0.800000
       1059.66       1.12000      0.860000
       1064.21       1.10000      0.890000
       1068.79       1.07000      0.960000
       1073.42       1.09000       1.06000
       1078.09       1.15000       1.14000
       1082.79       1.24000       1.19000
       1087.54       1.32000       1.21000
       1092.33       1.40000       1.23000
       1097.17       1.49000       1.22000
       1102.04       1.57000       1.19000
       1106.96       1.64000       1.15000
       1116.94       1.75000       1.04000
       1127.09       1.82000      0.930000
       1137.43       1.82000      0.780000
       1169.62       1.67000      0.560000
       1180.76       1.58000      0.530000
       1186.41       1.54000      0.540000
       1192.12       1.51000      0.560000
       1197.87       1.49000      0.590000
       1221.48       1.50000      0.700000
       1227.52       1.52000      0.710000
       1232.41       1.54000      0.710000
       1239.80       1.55000      0.710000
       1265.10       1.59000      0.700000
       1291.46       1.63000      0.680000
       1318.94       1.65000      0.650000
       1347.61       1.66000      0.630000
       1377.56       1.67000      0.600000
       1393.03       1.66000      0.590000
       1408.86       1.66000      0.600000
       1416.91       1.66000      0.590000
       1425.06       1.66000      0.590000
       1441.63       1.65000      0.580000
       1458.59       1.64000      0.580000
       1467.22       1.64000      0.580000
       1475.95       1.63000      0.580000
       1484.79       1.61000      0.570000
       1493.73       1.59000      0.580000
       1502.79       1.55000      0.580000
       1511.95       1.50000      0.600000
       1521.23       1.44000      0.650000
       1530.62       1.38000      0.740000
       1534.41       1.36000      0.800000
       1540.12       1.33000      0.890000
       1543.96       1.34000      0.990000
       1549.75       1.38000       1.10000
       1553.63       1.42000       1.18000
       1559.50       1.51000       1.29000
       1563.43       1.60000       1.36000
       1569.37       1.74000       1.43000
       1573.35       1.84000       1.46000
       1579.36       2.00000       1.49000
       1583.40       2.12000       1.49000
       1593.57       2.42000       1.41000
       1599.74       2.59000       1.33000
       1603.88       2.72000       1.26000
       1610.13       2.91000       1.05000
       1620.65       2.90000      0.590000
       1631.32       2.69000       0.00000
       1642.12       2.55000       0.00000
       1653.07       2.46000       0.00000
       1664.16       2.40000       0.00000
       1675.41       2.34000       0.00000
       1698.36       2.25000       0.00000
       1721.94       2.17000       0.00000
       1771.14       2.03000       0.00000
       1836.74       1.91000       0.00000
       1907.38       1.84000       0.00000
       2000.00       1.78990       0.00000
       2066.33       1.75000       0.00000
       2099.93       1.74676       0.00000
       2199.79       1.71499       0.00000
       2254.18       1.69000       0.00000
       2299.76       1.69056       0.00000
       2399.92       1.67118       0.00000
       2479.60       1.65000       0.00000
       2500.10       1.65537       0.00000
       2599.71       1.64227       0.00000
       2699.91       1.63124       0.00000
       2799.91       1.62184       0.00000
       2900.12       1.61374       0.00000
       2999.76       1.60669       0.00000
       3199.48       1.59506       0.00000
       3399.51       1.58590       0.00000
       3599.88       1.57852       0.00000
       3799.57       1.57248       0.00000
       3999.35       1.56746       0.00000
       4199.86       1.56324       0.00000
       4399.57       1.55965       0.00000
       4600.37       1.55657       0.00000
       4799.85       1.55390       0.00000
       4999.19       1.55157       0.00000
       5200.50       1.54953       0.00000
       5399.83       1.54773       0.00000
       5599.82       1.54613       0.00000
       5798.88       1.54471       0.00000
       6000.97       1.54343       0.00000
       6199.00       1.54228       0.00000
       6400.62       1.54124       0.00000
       6598.19       1.54030       0.00000
       6800.88       1.53944       0.00000
       7000.56       1.53865       0.00000
       7199.77       1.53794       0.00000
       7401.79       1.53728       0.00000
       7601.47       1.53667       0.00000
       7797.48       1.53611       0.00000
       7998.71       1.53560       0.00000
       8199.74       1.53512       0.00000
       8399.73       1.53467       0.00000
       8597.78       1.53426       0.00000
       8799.15       1.53387       0.00000
       8997.10       1.53351       0.00000
       9197.33       1.53317       0.00000
       9399.54       1.53285       0.00000
       9595.97       1.53255       0.00000
       9800.79       1.53227       0.00000
       9998.39       1.53200       0.00000
       11000.9       1.53088       0.00000
       12001.9       1.53000       0.00000
       12999.9       1.52930       0.00000
       13999.5       1.52873       0.00000
       14998.8       1.52824       0.00000
       15999.5       1.52782       0.00000
       16999.9       1.52745       0.00000
       17999.4       1.52712       0.00000
       18997.9       1.52682       0.00000
       20000.0       1.52654       0.00000
       20999.3       1.52627       0.00000
       21997.9       1.52602       0.00000
       22997.6       1.52578       0.00000
       23999.2       1.52554       0.00000
       25001.0       1.52531       0.00000
       25997.1       1.52509       0.00000
       26999.1       1.52486       0.00000
       27999.1       1.52463   1.30000e-09
       29001.2       1.52441       0.00000
       29997.6       1.52418       0.00000
       30995.0       1.52395       0.00000
       31994.8       1.52372       0.00000
       32999.7       1.52349       0.00000
       33995.1       1.52325       0.00000
       35002.8       1.52301       0.00000
       35998.8       1.52277       0.00000
       36997.9       1.52252       0.00000
       37995.7       1.52226   1.80000e-09
       38999.7       1.52201       0.00000
       39993.5       1.52174       0.00000
       40998.7       1.52148       0.00000
       41998.6       1.52121       0.00000
       43003.8       1.52093       0.00000
       43995.7       1.52065       0.00000
       45001.8       1.52036       0.00000
       46003.7       1.52006       0.00000
       46997.7       1.51977       0.00000
       47998.4       1.51946       0.00000
       49004.0       1.51915       0.00000
       49991.9       1.51883       0.00000
       50999.6       1.51851       0.00000
       52005.0       1.51818       0.00000
       53005.6       1.51785   1.70000e-09
       53998.3       1.51751       0.00000
       55004.4       1.51716       0.00000
       55998.2       1.51681       0.00000
       57002.3       1.51645       0.00000
       57988.8       1.51609       0.00000
       59010.0       1.51572       0.00000
       60009.7       1.51534       0.00000
       61990.0       1.51457       0.00000
       64006.2       1.51377       0.00000
       65981.9       1.51294       0.00000
       68008.8       1.51209       0.00000
       70005.6       1.51122       0.00000
       71997.7       1.51031       0.00000
       74017.9       1.50938       0.00000
       76014.7       1.50842       0.00000
       77974.8       1.50744       0.00000
       79987.1       1.50643       0.00000
       81997.4       1.50539       0.00000
       83997.3       1.50432       0.00000
       85977.8       1.50322       0.00000
       87991.5       1.50210       0.00000
       89971.0       1.50094       0.00000
       91973.3       1.49996       0.00000
       93995.5       1.49855       0.00000
       95959.8       1.49731       0.00000
       98007.9       1.49604       0.00000
       99983.9       1.49473       0.00000
       101957.       1.49340       0.00000
       104010.       1.49204       0.00000
       105966.       1.49065   8.00000e-08
       107997.       1.48922       0.00000
       110009.       1.48776       0.00000
       111996.       1.48628       0.00000
       113952.       1.48476       0.00000
       115978.       1.48320       0.00000
       117964.       1.48162       0.00000
       120019.       1.48000       0.00000
       122028.       1.47834       0.00000
       123992.       1.47665       0.00000
       125996.       1.47493       0.00000
       127999.       1.47318       0.00000
       129999.       1.47138       0.00000
       131992.       1.46956       0.00000
       134003.       1.46769       0.00000
       136003.       1.46579       0.00000
       138001.       1.46385       0.00000
       139995.       1.46188       0.00000
       142000.       1.45986       0.00000
       143995.       1.45781       0.00000
       145996.       1.45572       0.00000
       148000.       1.45359       0.00000
       149988.       1.45140       0.00000
       151992.       1.44920       0.00000
       153993.       1.44690       0.00000
       155989.       1.44460       0.00000
       157997.       1.44230       0.00000
       159995.       1.43990       0.00000
       162002.       1.43750       0.00000
       163995.       1.43510       0.00000
       165993.       1.43250       0.00000
       167995.       1.43000       0.00000
       169999.       1.42740       0.00000
       172003.       1.42470       0.00000
       174007.       1.42200       0.00000
       176008.       1.41930       0.00000
       178004.       1.41649       0.00000
       179994.       1.41364       0.00000
       182002.       1.41074       0.00000
       184001.       1.40779       0.00000
       185989.       1.40478       0.00000
       187991.       1.40173       0.00000
       189979.       1.39861       0.00000
       192009.       1.39544       0.00000
       193992.       1.39222       0.00000
       195985.       1.38893       0.00000
       197988.       1.38559       0.00000
       200000.       1.38220       0.00000
       200000.       1.41000   0.000620000
       208335.       1.38000   0.000870000
       217394.       1.35000    0.00110000
       227278.       1.33000    0.00150000
       238103.       1.32000    0.00230000
       250010.       1.27000    0.00350000
       263171.       1.23000    0.00530000
       277795.       1.17000    0.00980000
       294140.       1.12000     0.0170000
       312528.       1.01000     0.0450000
       333280.      0.850000      0.110000
       338928.      0.830000      0.130000
       344772.      0.800000      0.130000
       350821.      0.780000      0.140000
       357085.      0.690000      0.170000
       363578.      0.590000      0.220000
       370311.      0.490000      0.310000
       377298.      0.420000      0.500000
       384553.      0.450000      0.660000
       392094.      0.570000      0.710000
       396863.      0.590000      0.670000
       399936.      0.580000      0.660000
       408097.      0.510000      0.690000
       416599.      0.460000      0.810000
       421988.      0.440000      0.870000
       425463.      0.460000      0.870000
       429145.      0.490000      0.870000
       434712.      0.430000      0.870000
       444373.      0.300000       1.00000
       454472.      0.250000       1.15000
       465041.      0.200000       1.36000
       476114.      0.180000       1.56000
       487726.      0.160000       1.74000
       499919.      0.140000       1.99000
       512738.      0.150000       2.29000
       526231.      0.190000       2.63000
       540453.      0.240000       3.02000
       555466.       35.0000       3.72000
       571336.      0.590000       4.57000
       588140.       1.35000       6.03000
       605963.       6.17000       7.41000
       613459.       7.76000       6.03000
       624899.       6.92000       2.14000
       645057.       5.50000      0.870000
       666559.       4.52000      0.380000
       689544.       4.07000      0.309000
       714170.       3.72000      0.219000
       740621.       3.47000      0.145000
       769107.       3.31000      0.135000
       833199.       3.02000      0.110000
       908944.       2.85000     0.0950000
       999839.       2.74000     0.0870000
   1.11093e+06       2.63000     0.0780000
   1.24992e+06       2.57000     0.0770000
   1.42851e+06       2.52000     0.0680000
   1.66662e+06       2.48000     0.0550000
   2.00000e+06       2.45000     0.0470000
   2.22226e+06       2.44000     0.0450000
   2.50010e+06       2.44000     0.0410000
   2.85734e+06       2.43000     0.0360000
   3.33280e+06       2.43000     0.0320000
   3.99935e+06       2.43000     0.0270000
   4.99919e+06       2.43000     0.0240000
   6.66559e+06       2.43000     0.0140000
   9.99839e+06       2.43000    0.00600000
   2.00000e+07       2.43000       0.00000
   2.58453e+07       2.43000    0.00210000
   8.46858e+07       2.43000   0.000580000
   3.05897e+08       2.43000   0.000250000
