;  Optical constants for NaF
; 
;   taken from:
;
;   'Handbook of Optical Constants of Solids II', Ed. by Edward D. Palik,
;   Academic Press, Inc., 1991.
;   
;    Lambda (A)            n            k
;-----------------------------------------
       1009.61       1.36000      0.322000
       1019.57       1.35900      0.321000
       1029.73       1.35800      0.316000
       1040.10       1.35800      0.307000
       1049.79       1.35100      0.297000
       1059.66       1.33300      0.280000
       1069.72       1.32000      0.254000
       1079.97       1.28900      0.227000
       1089.46       1.24700      0.213000
       1100.09       1.20400      0.205000
       1109.94       1.12800      0.204000
       1119.96       1.09300      0.209000
       1130.17       1.13800      0.272000
       1139.52       1.26900      0.342000
       1150.09       1.56700      0.578000
       1159.78       1.82200      0.784000
       1169.62       2.16700      0.900000
       1179.64       2.40400      0.833000
       1189.83       2.51100      0.629000
       1200.19       2.49300      0.491000
       1209.56       2.36000      0.382000
       1220.28       2.23000      0.308000
       1229.96       2.12200      0.236000
       1239.80       2.04400      0.171000
       1249.92       1.95800      0.140000
       1259.96       1.91100      0.120000
       1269.90       1.86600      0.107000
       1279.86       1.82200     0.0960000
       1289.98       1.80000     0.0870000
       1299.85       1.75600     0.0800000
       1309.88       1.73600     0.0760000
       1319.92       1.71700     0.0720000
       1329.97       1.70000     0.0690000
       1339.89       1.68300     0.0640000
       1349.96       1.66700     0.0610000
       1359.88       1.65200     0.0580000
       1369.94       1.63800     0.0560000
       1379.86       1.62500     0.0540000
       1389.91       1.61300     0.0520000
       1399.95       1.60100     0.0490000
       1409.99       1.59100     0.0480000
       1419.84       1.58000     0.0470000
       1429.99       1.57100     0.0450000
       1439.95       1.56200     0.0440000
       1449.89       1.55400     0.0420000
       1459.96       1.54600     0.0390000
       1469.83       1.53900     0.0380000
       1479.83       1.53200     0.0360000
       1489.97       1.52600     0.0350000
       1499.88       1.52000     0.0330000
       1509.93       1.51400     0.0320000
       1519.92       1.50900     0.0310000
       1529.86       1.50500     0.0300000
       1539.93       1.50000     0.0280000
       1549.75       1.49700     0.0270000
       1559.89       1.49300     0.0270000
       1569.96       1.49000     0.0270000
       1579.97       1.48700     0.0260000
       1589.89       1.48400     0.0260000
       1599.95       1.48200     0.0230000
       1609.92       1.47900     0.0230000
       1619.81       1.47700     0.0230000
       1629.81       1.47600     0.0230000
       1639.95       1.47400     0.0230000
       1859.89       1.39300       0.00000
       1929.95       1.38500       0.00000
       1989.73       1.38050       0.00000
       2029.80       1.37720       0.00000
       2059.81       1.37450       0.00000
       2099.93       1.37180       0.00000
       2139.80       1.36910       0.00000
       2189.69       1.36650       0.00000
       2269.86       1.36300       0.00000
       2310.04       1.36060       0.00000
       2369.65       1.35860       0.00000
       2500.10       1.34200       0.00000
       2540.05       1.35250       0.00000
       2570.07       1.35120       0.00000
       2599.71       1.34200       0.00000
       2644.62       1.34910       0.00000
       2699.91       1.34100       0.00000
       2749.61       1.34690       0.00000
       2799.91       1.34100       0.00000
       2900.12       1.34000       0.00000
       2999.76       1.33900       0.00000
       3019.48       1.34170       0.00000
       3130.02       1.34010       0.00000
       3199.48       1.33700       0.00000
       3299.97       1.33600       0.00000
       3399.51       1.33500       0.00000
       3499.29       1.33400       0.00000
       3599.88       1.33400       0.00000
       3664.79       1.33420       0.00000
       3699.79       1.33300       0.00000
       3799.57       1.33200       0.00000
       3899.97       1.33100       0.00000
       3999.35       1.33100       0.00000
       4050.31       1.33140       0.00000
       4350.18       1.33000       0.00000
       4500.18       1.32700       0.00000
       4999.19       1.32500       0.00000
       5459.27       1.32600       0.00000
       5459.27       1.32580       0.00000
       5500.44       1.32100       0.00000
       5500.44       1.30000       0.00000
       5779.95       1.32510       0.00000
       5998.06       1.32100       0.00000
       7000.56       1.31900       0.00000
       7998.71       1.31700       0.00000
       7998.71       1.32270       0.00000
       8997.10       1.31600       0.00000
       9998.39       1.31600       0.00000
       14998.8       1.31400       0.00000
       20000.0       1.31300       0.00000
       210528.      0.691000      0.102000
       212768.      0.678000      0.122000
       215056.      0.646000      0.116000
       217394.      0.616000      0.136000
       219784.      0.577000      0.153000
       224724.      0.491000      0.139000
       227278.      0.446000      0.147000
       229891.      0.430000      0.201000
       232564.      0.405000      0.227000
       235301.      0.347000      0.254000
       238057.      0.301000      0.296000
       240925.      0.248000      0.339000
       243863.      0.215000      0.400000
       246874.      0.185000      0.472000
       249960.      0.158000      0.545000
       253124.      0.174000      0.622000
       256369.      0.198000      0.679000
       259698.      0.228000      0.762000
       263115.      0.266000      0.825000
       266624.      0.303000      0.855000
       270227.      0.282000      0.864000
       273928.      0.159000      0.968000
       277733.      0.260000       1.00000
       281645.      0.250000       1.04000
       285668.      0.240000       1.05000
       289808.      0.210000       1.12000
       294070.      0.180000       1.20000
       298459.      0.160000       1.29000
       302981.      0.160000       1.39000
       307643.      0.150000       1.49000
       312450.      0.140000       1.57000
       317409.      0.140000       1.65000
       322529.      0.140000       1.77000
       327816.      0.160000       1.92000
       333280.      0.170000       2.04000
       338928.      0.190000       2.17000
       344772.      0.210000       2.33000
       350821.      0.240000       2.52000
       357085.      0.270000       2.71000
       359675.      0.290000       2.81000
       362303.      0.310000       2.93000
       364969.      0.320000       2.96000
       367675.      0.360000       3.02000
       370311.      0.400000       3.12000
       373097.      0.430000       3.29000
       375925.      0.500000       3.51000
       378796.      0.560000       3.69000
       381712.      0.620000       3.88000
       384553.      0.640000       3.99000
       387559.      0.720000       4.24000
       390611.      0.810000       4.52000
       393712.      0.970000       4.71000
       396736.       1.50000       5.26000
       399936.       3.39000       6.95000
       403187.       8.69000       7.90000
       406492.       13.2300       4.74000
       409851.       13.2200       1.31000
       413129.       11.3300       1.00000
       416599.       9.91000      0.690000
       420129.       8.60000      0.590000
       423718.       7.26000      0.450000
       427370.       6.36000      0.310000
       430935.       5.63000      0.250000
       434712.       5.02000      0.220000
       438557.       4.78000      0.210000
       444373.       4.62000      0.190000
       454472.       4.22000      0.160000
       465041.       3.95000      0.140000
       476114.       3.86000      0.130000
       487726.       3.79000      0.120000
       499919.       3.67000      0.120000
       512738.       3.53000      0.110000
       526231.       3.39000      0.110000
       540453.       3.26000      0.110000
       555466.       3.13000     0.0900000
       571336.       3.02000     0.0900000
       588140.       2.95000     0.0900000
       605963.       2.89000     0.0900000
       624899.       2.84000     0.0900000
       666559.       2.75000     0.0900000
       714170.       2.68000     0.0900000
       769107.       2.61000      0.110000
       833199.       2.56000      0.100000
       908944.       2.53000     0.0900000
       999839.       2.50000     0.0700000
   1.11093e+06       2.46000     0.0600000
