;  Optical constants for evap. Nb
; 
;   taken from:
;
;   D. L. Windt, Webster C. Cash, Jr., M. Scott, P. Arendt, B. Newnam,
;   R. F. Fisher, and A. B. Swartzlander, 'Optical Constants for thin films
;   of Ti, Zr, Nb, Mo, Ru, Rh, Pd, Ag, Hf, Ta, W, Re, Ir, Os, Pt, and Au
;   from 24 to 1216 A', App. Opt., 27, 246, 1988.
;   
;    Lambda (A)            n            k
;-----------------------------------------
   23.620      .99826	.00109
   31.600      .99810	.00129
   44.700      .99687	.00324
   67.600      .99074	.00177
   114.00      .9689	.00563
   135.50      .9571	.0101	
   171.40      .910	.0359	
   243.03      .846	.112	
   256.32      .845	.132
   303.78      .879	.173
   327.00      .896	.195
   356.795     .908	.192
   379.31      .890	.203
   405.85      .865	.172
   447.81      .816	.212
   460.73      .802	.218
   489.50      .817	.319
   539.09      .806	.329
   584.33      .811	.421
   616.29      .807	.379
   671.39      .836	.461
   718.48      .846	.484
   735.90      .858	.559
   743.72      .859	.547
   834.46      .887	.622
   878.00      .878	.606
   919.78      .927	.664
   932.05      .956	.701
   988.78      .957	.761
   1025.8      .923	.77	
   1048.2      1.03	.848	
   1066.7      1.09	.861	
   1085.7      1.08	.884	
   1135.0      1.06	.884	
   1200.7      1.14	.938	
   1215.7      1.33	.995	
