;  Optical constants for Os
; 
;   taken from:
;
;   J. H. Weaver, C. Krafka, D. W. Lynch, and E. E. Koch, 'Physik Daten,
;   Physics Data: Optical Properties of Metals', Vol. 18-1 and 18-2,
;   Fach-information zentrum, Karlsruhe, 1981.
;   
;    Lambda (A)            n            k
;-----------------------------------------
   309.95    .84	.26
   317.90    .81	.26
   326.26    .79	.26
   335.08    .77	.27
   344.39    .74	.29
   354.23    .72	.31
   364.65    .70	.34
   375.70    .68	.37
   387.44    .66	.41
   399.94    .65	.45
   413.27    .65	.49 
   418.85    .65	.51
   424.59    .65	.53
   430.49    .65	.55
   436.55    .64	.57
   442.79    .64	.59
   455.81    .65	.62
   462.61    .63	.66
   469.62    .65	.69
   476.85    .66	.72
   484.30    .67	.75
   491.98    .69	.77
   499.92    .70	.80
   508.11    .72	.82
   516.58    .73	.84
   525.34    .75	.86
   534.40    .75	.88
   543.77    .77	.90
   553.48    .78	.93
   563.55    .80	.96
   573.98    .83	.99
   584.81    .86	1.02
   590.38    .87	1.04
   596.06    .89	1.05
   601.84    .91	1.07
   607.75    .93	1.09
   613.76    .96	1.10
   626.16    1.02	1.11
   632.55    1.05	1.11
   639.07    1.07	1.11
   645.73    1.10	1.10
   652.53    1.12	1.10
   659.47    1.14	1.10
   666.56    1.17	1.09
   673.80    1.19	1.08
   681.21    1.21	1.06
   688.78    1.23	1.04
   696.52    1.24	1.03
   704.43    1.26	1.01
   712.53    1.27	.99
   720.81    1.27	.97
   729.29    1.28	.96
   737.98    1.28	.94 
   746.87    1.28	.92
   755.98    1.28	.90
   765.31    1.26	.88
   774.88    1.25	.87
   784.68    1.22	.86
   794.74    1.20	.86
   805.06    1.18	.87
   815.66    1.17	.89
   826.53    1.16	.90
   837.70    1.16	.91
   849.18    1.15	.93
   860.97    1.16	.94
   873.10    1.17	.96
   885.57    1.17	.96
   898.41    1.18	.96
   911.62    1.17	.97
   925.22    1.17	.97
   939.24    1.16	.98
   953.69    1.16	.99
   968.59    1.15	1.01
   983.97    1.15	1.02
   999.84    1.14	1.03
   1016.2    1.14	1.06
   1033.2    1.15	1.08
   1050.7    1.16	1.10
   1068.8    1.17	1.12 
   1087.5    1.19	1.15
   1107.0    1.23	1.14
   1127.1    1.24	1.13
   1148.0    1.25	1.11
   1169.6    1.24	1.10
   1180.8    1.23	1.09
   1192.1    1.22	1.08
   1203.7    1.20	1.08
   1215.5    1.19	1.08
   1239.8    1.16	1.10
   1265.1    1.13	1.11
   1291.5    1.10	1.14
   1318.9    1.08	1.16
