;  Optical constants for evaporated Os film
; 
;   taken from:
;
;   D. L. Windt, Webster C. Cash, Jr., M. Scott, P. Arendt, B. Newnam,
;   R. F. Fisher, and A. B. Swartzlander, 'Optical Constants for thin films
;   of Ti, Zr, Nb, Mo, Ru, Rh, Pd, Ag, Hf, Ta, W, Re, Ir, Os, Pt, and Au
;   from 24 to 1216 A', App. Opt., 27, 246, 1988.
;   
;    Lambda (A)            n            k
;-----------------------------------------
   23.620      .99605	.00245
   31.600      .99514	.00381
   44.700      .99273	.00792
   67.600      .98627	.0138	
   114.00      .95235	.0193	
   135.50      .9139	.0322	
   171.40      .8859	.1102	
   243.03      .8834	.2211	
   256.32      .8601	.2287	
   303.78      .8395	.1107	
   327.00      .753	.1958	
   356.80      .703	.222	
   379.31      .663	.339
   405.85      .638	.363
   447.81      .631	.511
   460.73      .623	.565
   489.50      .688	.684
   539.09      .750	.784
   584.33      .809	.902
   616.29      .805	.881
   671.39      .961	.949
   718.48      1.03	.931
   735.90      1.09	.91	
   743.72      1.15	.927	
   834.46      1.09	.887	
   878.00      1.03	.876	
   919.78      1.08	.91	
   932.05      1.15	.964	
   988.78      1.15	.953	
   1025.8      1.26	1.02	
   1048.2      1.212	.988	
   1066.7      1.137	.954	
   1085.7      1.161	.943	
   1135.0      1.163	.929	
   1200.7      1.251	.946	
   1215.7      1.255	.982	
