;  Optical constants for PbSe
; 
;   taken from:
;
;   'Handbook of Optical Constants of Solids', Ed. by Edward D. Palik,
;   Academic Press, Inc., 1985.
;   
;    Lambda (A)            n            k
;-----------------------------------------
       855.034      0.720000      0.200000
       885.571      0.700000      0.250000
       953.692      0.700000      0.350000
       1033.17      0.700000      0.380000
       1078.09      0.700000      0.400000
       1127.09      0.710000      0.440000
       1180.76      0.700000      0.460000
       1239.80      0.680000      0.500000
       1305.05      0.680000      0.560000
       1377.56      0.700000      0.660000
       1458.59      0.725000      0.630000
       1549.75      0.715000      0.620000
       1653.07      0.710000      0.660000
       1771.14      0.700000      0.710000
       1907.38      0.680000      0.780000
       2066.33      0.640000      0.860000
       2254.18      0.580000       1.00000
       2479.60      0.540000       1.20000
       2755.11      0.560000       1.30000
       3099.50      0.640000       1.90000
       3542.29      0.740000       2.40000
       4132.67       1.25000       3.20000
       6199.00       3.65000       2.90000
       8265.33       4.64000       2.64000
       12398.0       4.65000       1.10000
       24796.0       4.70000      0.450000
       25829.2       4.90000       0.00000
       26952.2       4.88000       0.00000
       28177.3       4.88500       0.00000
       29519.0       4.89500       0.00000
       30995.0       4.91000       0.00000
       31789.7       4.85000      0.219000
       32626.3       4.93000      0.225000
       34438.9       4.95000       0.00000
       36464.7       4.96000      0.194000
       38743.8       4.98000      0.173000
       44278.6       4.94000     0.0353000
       47684.6       4.94000    0.00285000
       51658.3       4.90000    0.00138000
       53904.3       4.83000    0.00128000
       56354.5       4.86000       0.00000
       61990.0       4.82000       0.00000
       77487.5       4.80000       0.00000
       82653.3       4.78000       0.00000
       88557.1       4.77000       0.00000
       95369.2       4.75000       0.00000
       99983.9       4.75000    0.00106000
       102041.       4.75000    0.00113000
       104185.       4.74000    0.00120000
       106421.       4.74000    0.00128000
       108659.       4.74000    0.00137000
       111093.       4.74000    0.00146000
       113639.       4.73000    0.00157000
       116304.       4.73000    0.00168000
       119097.       4.73000    0.00180000
       121908.       4.73000    0.00194000
       124992.       4.72000    0.00209000
       128198.       4.72000    0.00226000
       131572.       4.71000    0.00244000
       135128.       4.71000    0.00265000
       138882.       4.70000    0.00288000
       142851.       4.70000    0.00314000
       147053.       4.69000    0.00343000
       151509.       4.69000    0.00375000
       156244.       4.68000    0.00412000
       161285.       4.67000    0.00454000
       166662.       4.66000    0.00502000
       172410.       4.65000    0.00558000
       178568.       4.64000    0.00621000
       185072.       4.63000    0.00695000
       192306.       4.62000    0.00780000
       200000.       4.60000    0.00881000
       208335.       4.59000     0.0100000
       217394.       4.57000     0.0114000
       227278.       4.55000     0.0131000
       238103.       4.52000     0.0152000
       250010.       4.49000     0.0177000
       263171.       4.46000     0.0208000
       277795.       4.42000     0.0247000
       294140.       4.37000     0.0297000
       312450.       4.31000     0.0362000
       333280.       4.24000     0.0448000
       357085.       4.15000     0.0564000
       384553.       4.04000     0.0726000
       416599.       3.89000     0.0961000
       454472.       3.69000      0.130000
       499919.       3.42000      0.190000
       555466.       3.01000      0.300000
       624899.       2.34000      0.560000
       714170.       1.34000       1.49000
       833199.       1.02000       3.19000
       999839.       1.18000       5.02000
   1.02041e+06       1.21000       5.22000
   1.04185e+06       1.25000       5.43000
   1.06421e+06       1.29000       5.64000
   1.08659e+06       1.34000       5.87000
   1.11093e+06       1.39000       6.09000
   1.13639e+06       1.44000       6.33000
   1.16304e+06       1.51000       6.58000
   1.19097e+06       1.57000       6.83000
   1.21908e+06       1.65000       7.10000
   1.24992e+06       1.73000       7.38000
   1.28198e+06       1.83000       7.67000
   1.31572e+06       1.93000       7.97000
   1.35128e+06       2.05000       8.29000
   1.38882e+06       2.18000       8.62000
   1.42851e+06       2.33000       8.97000
   1.47053e+06       2.50000       9.34000
   1.51509e+06       2.69000       9.73000
   1.56244e+06       2.91000       10.1000
   1.61285e+06       3.16000       10.6000
   1.66662e+06       3.46000       11.0000
   1.72410e+06       3.80000       11.5000
   1.78568e+06       4.20000       12.0000
   1.85183e+06       4.68000       12.5000
   1.92306e+06       5.25000       13.1000
   2.00000e+06       5.93000       13.6000
   2.08335e+06       6.70000       14.1000
   2.17394e+06       7.70000       14.5000
   2.27278e+06       8.80000       14.7000
   2.38103e+06       10.0000       14.8000
   2.50010e+06       11.2000       14.6000
   2.63171e+06       12.3000       14.1000
   2.77795e+06       13.2000       13.4000
   2.94140e+06       13.8000       12.5000
   3.12450e+06       14.1000       11.7000
   3.33280e+06       14.0000       11.0000
   3.57085e+06       13.8000       10.6000
   3.84553e+06       13.4000       10.5000
   4.16599e+06       13.0000       10.1000
   4.54472e+06       12.7000       11.3000
   4.99919e+06       12.6000       12.2000
   5.55466e+06       12.8000       13.4000
   6.24899e+06       13.2000       14.9000
   7.14171e+06       14.1000       16.6000
   8.33199e+06       15.5000       18.1000
   9.99839e+06       17.4000       21.1000
