;  Optical constants for cubic PbTe
; 
;   taken from:
;
;   'Handbook of Optical Constants of Solids', Ed. by Edward D. Palik,
;   Academic Press, Inc., 1985.
;   
;    Lambda (A)            n            k
;-----------------------------------------
       729.294      0.800000      0.100000
       751.394      0.780000      0.100000
       774.875      0.750000      0.100000
       799.871      0.730000      0.150000
       826.533      0.720000      0.170000
       855.034      0.700000      0.200000
       885.571      0.670000      0.220000
       918.370      0.650000      0.260000
       953.692      0.630000      0.300000
       991.840      0.630000      0.350000
       1033.17      0.620000      0.370000
       1078.09      0.600000      0.450000
       1127.09      0.620000      0.500000
       1180.76      0.650000      0.580000
       1239.80      0.660000      0.600000
       1305.05      0.680000      0.620000
       1377.56      0.680000      0.700000
       1458.59      0.700000      0.780000
       1549.75      0.730000      0.820000
       1653.07      0.800000      0.920000
       1771.14      0.900000      0.920000
       1907.38      0.900000      0.940000
       2066.33      0.800000      0.920000
       2254.18      0.750000      0.870000
       2479.60      0.720000       1.00000
       2755.11      0.650000       1.22000
       3099.50      0.700000       1.55000
       3542.29      0.860000       1.85000
       4132.67       1.00000       2.20000
       4959.20       1.35000       2.86000
       8265.33       3.80000       3.10000
       12398.0       4.55000       2.20000
       24796.0       5.76000       1.40000
       25829.2       6.04000       0.00000
       26952.2       6.04000       0.00000
       28177.3       6.05000       0.00000
       29519.0       6.08000      0.374000
       30239.0       6.06000      0.345000
       30995.0       6.07500      0.331000
       30995.0       6.12000      0.220000
       32626.3       6.15000      0.285000
       33508.1       6.13000      0.284000
       34438.9       6.09000      0.261000
       34438.9       6.16000      0.178000
       35422.9       6.12000      0.227000
       36464.7       6.23000      0.145000
       36464.7       6.05000       0.00000
       37009.0       6.17000      0.177000
       38503.1       6.16000     0.0781000
       38503.1       5.96000     0.0732000
       39993.5       6.02000     0.0561000
       41326.7       5.95000     0.0355000
       41326.7       5.89000     0.0123000
       44278.6       5.90000     0.0249000
       44278.6       5.82000    0.00420000
       45918.5       5.88000     0.0217000
       47684.6       5.85000    0.00444000
       47684.6       5.82000       0.00000
       49592.0       5.84000       0.00000
       49592.0       5.79000       0.00000
       51658.3       5.79000       0.00000
       52757.4       5.82000       0.00000
       56354.5       5.80000       0.00000
       56354.5       5.76000       0.00000
       59038.1       5.78000       0.00000
       61990.0       5.77000       0.00000
       61990.0       5.74000       0.00000
       67016.2       5.74000       0.00000
       67016.2       5.76000       0.00000
       68877.8       5.72000       0.00000
       77487.5       5.70000       0.00000
       79987.1       5.72000    0.00568000
       88557.1       5.68000       0.00000
       99983.9       5.66000       0.00000
       99983.9       5.56000    0.00497000
       102041.       5.55000    0.00529000
       104185.       5.54000    0.00563000
       106421.       5.54000    0.00601000
       108659.       5.53000    0.00642000
       111093.       5.52000    0.00687000
       112403.       5.66000       0.00000
       113639.       5.51000    0.00737000
       116304.       5.49000    0.00791000
       119097.       5.48000    0.00850000
       121908.       5.47000    0.00916000
       124992.       5.45000    0.00990000
       128198.       5.44000     0.0107000
       131572.       5.64000       0.00000
       131572.       5.51000       0.00000
       133326.       5.42000     0.0116000
       135128.       5.40000     0.0126000
       138882.       5.38000     0.0137000
       142851.       5.36000     0.0150000
       147053.       5.34000     0.0164000
       151509.       5.31000     0.0181000
       151509.       5.57000       0.00000
       156244.       5.28000     0.0199000
       161285.       5.25000     0.0220000
       166662.       5.22000     0.0245000
       172410.       5.18000     0.0273000
       178568.       5.13000     0.0306000
       185183.       5.09000     0.0345000
       185183.       5.48000       0.00000
       192306.       5.03000     0.0390000
       200000.       4.97000     0.0444000
       208335.       4.90000     0.0509000
       217394.       4.82000     0.0588000
       227278.       4.72000     0.0685000
       238103.       4.61000     0.0810000
       250010.       4.50000     0.0960000
       263171.       4.32000      0.120000
       277795.       4.13000      0.140000
       294140.       3.89000      0.180000
       312450.       3.58000      0.230000
       333280.       3.18000      0.320000
       357085.       2.62000      0.480000
       384553.       1.79000      0.870000
       416599.       1.01000       1.90000
       454472.      0.800000       3.20000
       499919.      0.780000       4.40000
       555466.      0.840000       5.60000
       624899.      0.950000       6.90000
       714170.       1.15000       8.50000
       833199.       1.47000       10.4000
       999839.       2.00000       13.0000
   1.02041e+06       2.07000       13.3000
   1.04185e+06       2.14000       13.6000
   1.06421e+06       2.22000       13.9000
   1.08659e+06       2.31000       14.3000
   1.11093e+06       2.40000       14.6000
   1.13639e+06       2.50000       15.0000
   1.16304e+06       2.60000       15.4000
   1.19097e+06       2.71000       15.8000
   1.21908e+06       2.83000       16.2000
   1.24992e+06       2.95000       16.6000
   1.28198e+06       3.10000       17.1000
   1.31572e+06       3.20000       17.6000
   1.35128e+06       3.40000       18.1000
   1.38882e+06       3.60000       18.6000
   1.42851e+06       3.70000       19.2000
   1.47053e+06       3.90000       19.8000
   1.51509e+06       4.20000       20.4000
   1.56244e+06       4.40000       21.1000
   1.61285e+06       4.70000       21.8000
   1.66662e+06       4.90000       22.5000
   1.72410e+06       5.30000       23.3000
   1.85183e+06       6.00000       25.1000
   1.92306e+06       6.40000       26.1000
   2.00000e+06       6.90000       27.2000
   2.08335e+06       7.50000       28.4000
   2.17394e+06       8.20000       29.8000
   2.27278e+06       9.10000       31.3000
   2.38103e+06       10.2000       32.9000
   2.50010e+06       11.6000       34.8000
   2.63171e+06       13.6000       36.9000
   2.77795e+06       16.6000       38.8000
   2.94140e+06       20.8000       39.9000
   3.12450e+06       25.3000       38.8000
   3.33280e+06       27.7000       35.7000
   3.57085e+06       27.5000       33.4000
   3.84553e+06       26.5000       33.2000
   4.16599e+06       26.0000       34.5000
   4.54472e+06       26.4000       36.6000
   4.99919e+06       27.6000       39.1000
   5.55466e+06       29.4000       42.0000
   6.24899e+06       32.0000       45.1000
   7.14171e+06       35.4000       48.7000
   8.33199e+06       39.6000       52.8000
   9.99839e+06       45.1000       57.8000
