;  Optical constants for
; 
;   taken from:
;
;   J. H. Weaver, C. Krafka, D. W. Lynch, and E. E. Koch, 'Physik Daten,
;   Physics Data: Optical Properties of Metals', Vol. 18-1 and 18-2,
;   Fach-information zentrum, Karlsruhe, 1981.
;   
;    Lambda (A)            n            k
;-----------------------------------------
   424.59    .82	.35
   445.97    .81	.38
   469.62    .80	.43
   495.13    .81	.51
   516.58    .84	.54
   527.57    .85	.56
   539.04    .86	.59
   551.02    .88	.62
   563.55    .91	.64
   576.65    .95	.66
   590.38    .99	.67
   597.49    1.01	.67
   604.78    1.03	.67
   612.25    1.05	.66
   619.90    1.07	.65
   627.75    1.08	.63
   635.79    1.08	.61
   644.05    1.08	.60
   652.53    1.08	.59
   661.23    1.07	.59
   670.16    1.07	.59
   679.34    1.07	.59
   688.78    1.07	.59
   698.48    1.06	.60
   708.46    1.06	.61
   718.72    1.07	.61
   729.29    1.07	.61
   740.18    1.06	.62
   751.39    1.06	.63
   762.95    1.07	.65
   774.88    1.08	.66
   787.17    1.09	.67
   799.87    1.10	.68
   812.98    1.11	.69
   826.53    1.13	.69
   840.54    1.15	.68
   855.03    1.15	.68
   870.04    1.16	.68
   885.57    1.17	.67
   901.67    1.17	.67
   918.37    1.18	.67
   935.70    1.18	.67
   953.69    1.18	.67
   972.39    1.19	.67
   991.84    1.19	.67
   1012.1    1.20	.66
   1033.2    1.20	.66
   1055.1    1.20	.65
   1078.1    1.19	.65
   1102.0    1.19	.65
   1127.1    1.18	.64
   1153.3    1.17	.64
   1180.8    1.16	.65
   1209.6    1.15	.65
   1239.8    1.14	.65
   1271.6    1.13	.65
   1305.1    1.12	.65
