;  Optical constants for Pt
; 
;   taken from:
;
;   J. H. Weaver, C. Krafka, D. W. Lynch, and E. E. Koch, 'Physik Daten,
;   Physics Data: Optical Properties of Metals', Vol. 18-1 and 18-2,
;   Fach-information zentrum, Karlsruhe, 1981.
;   
;    Lambda (A)            n            k
;-----------------------------------------
   413.27    .73	.58
   416.74    .74	.58
   420.27    .74	.58
   423.86    .75	.58
   427.52    .75	.58
   431.23    .75	.58
   435.02    .75	.59
   438.87    .75	.59
   442.79    .75	.60
   446.77    .75	.61
   450.84    .74	.62
   454.97    .74	.62
   459.19    .74	.63
   463.48    .74	.64
   467.85    .74	.65
   472.30    .74	.66
   476.85    .74	.67
   481.48    .73	.68
   486.20    .73	.70
   491.01    .73	.72
   495.92    .73	.73
   500.93    .73	.75
   506.04    .73	.77
   511.26    .73	.80 
   516.58    .74	.82
   522.02    .75	.84
   527.57    .75	.87
   533.25    .76	.89
   539.04    .77	.92
   544.97    .79	.95
   551.02    .81	.98
   557.21    .84	1.01
   563.55    .87	1.04
   570.02    .90	1.06
   576.65    .94	1.08
   583.44    .99	1.10
   590.38    1.03	1.10
   597.49    1.07	1.09
   604.78    1.11	1.09
   612.25    1.15	1.07
   619.90    1.18	1.06
   627.75    1.21	1.04
   635.79    1.23	1.03
   635.79    1.25	1.01
   652.53    1.28	.99
   661.23    1.29	.96
   670.16    1.30	.94 
   679.34    1.31	.91
   688.78    1.31	.88
   698.48    1.29	.86
   708.46    1.27	.85
   718.72    1.26	.85
   729.29    1.25	.86
   740.18    1.24	.87
   751.39    1.24	.87
   762.95    1.24	.88
   774.88    1.24	.89
   784.68    1.24	.90
   794.74    1.25	.91
   805.06    1.25	.92
   815.66    1.27	.93
   826.53    1.27       .91
   837.70    1.27	.91
   849.18    1.29	.94
   860.97    1.30	.93
   873.10    1.30	.93
   885.57    1.31	.93
   898.41    1.31	.93
   911.62    1.31	.93
   925.22    1.31	.93
   939.24    1.31	.93
   953.69    1.30	.93
   968.59    1.29	.94 
   983.97    1.29	.96
   999.84    1.29	.97
   1016.2    1.29	.98
   1033.2    1.29	1.0
   1050.7    1.29	1.01
   1068.8    1.29	1.04
   1087.5    1.30	1.06
   1107.0    1.31	1.08
   1127.1    1.33	1.10
   1148.0    1.35	1.12
   1169.6    1.37	1.14
   1192.1    1.40	1.15
   1215.5    1.43	1.16
   1239.8    1.46	1.15
   1265.1    1.48	1.15
   1291.5    1.49	1.13    
   1318.9    1.49	1.12    
