;  Optical constants for Re, single crystal with E || c
; 
;   taken from:
; 
;   Lynch et al, in
;
;   J. H. Weaver, C. Krafka, D. W. Lynch, and E. E. Koch, 'Physik Daten,
;   Physics Data: Optical Properties of Metals', Vol. 18-1 and 18-2,
;   Fach-information zentrum, Karlsruhe, 1981.
;   
;    Lambda (A)            n            k
;-----------------------------------------
   210.14    .65	.12
   213.76    .65	.16
   217.51    .65	.20
   221.39    .66	.24
   225.42    .69	.27
   229.59    .72	.30
   233.92    .75	.30
   238.42    .78	.30
   243.10    .79	.30
   247.96    .80	.30
   253.02    .81	.30
   258.29    .82	.30
   263.79    .83	.31
   269.52    .85	.32
   275.51    .88	.31
   281.77    .89	.29
   288.33    .89	.27
   295.19    .88	.26
   302.39    .87	.26
   309.95    .88	.26
   317.90    .89	.21
   326.26    .85	.20
   335.08    .82	.19
   344.39    .79	.20
   354.23    .76	.20
   364.65    .72	.21
   375.70    .68	.24
   381.48    .67	.25
   387.44    .66	.26
   399.94    .62	.29
   413.27    .57	.33
   427.52    .54	.39
   442.79    .51	.45
   449.20    .50	.48
   455.81    .49	.51 
   462.61    .48	.54
   469.62    .48	.57
   476.85    .47	.61
   484.30    .47	.65
   491.98    .47	.68
   499.92    .47	.72
   508.11    .48	.76
   516.58    .48	.80
   525.34    .50	.85
   534.40    .51	.89 
   543.77    .53	.93
   553.48    .55	.97
   563.55    .58	1.01
   573.98    .61	1.04
   584.81    .64	1.08
   596.06    .67	1.11
   607.75    .70	1.14
   613.76    .71	1.16
   619.90    .73	1.18
   626.16    .75	1.19
   632.55    .77	1.21
   639.07    .79	1.23
   645.73    .81	1.25
   652.53    .84	1.27
   659.47    .87	1.28
   666.56    .90	1.29
   673.80    .93	1.29
   681.21    .96	1.30
   688.78    .99	1.30
   696.52    1.01	1.30
   704.43    1.04	1.30
   712.53    1.07	1.30
   720.81    1.09	1.30
   729.29    1.12	1.30
   737.98    1.14	1.29
   746.87    1.16	1.28
   755.98    1.19	1.27
   765.31    1.21	1.26
   774.88    1.23	1.25
   784.68    1.25	1.24
   794.74    1.26	1.22
   805.06    1.27	1.20
   815.66    1.29	1.19
   826.53    1.29	1.16
   837.70    1.29	1.15
   849.18    1.29	1.12
   860.97    1.27	1.11
   873.10    1.25	1.11
   885.57    1.24	1.12
   898.41    1.23	1.13
   911.62    1.22	1.13
   925.22    1.22	1.14
   939.24    1.22	1.16
   953.69    1.22	1.17
   968.59    1.21	1.18
   983.97    1.22	1.20
   999.84    1.22	1.21
   1016.2    1.22	1.23
   1033.2    1.23	1.24
   1050.7    1.24	1.26
   1068.8    1.26	1.28
   1087.5    1.28	1.28
   1107.0    1.29	1.28
   1127.1    1.30	1.27
   1148.0    1.30	1.26
   1169.6    1.29	1.25
   1192.1    1.28	1.25
   1215.5    1.25	1.25
   1239.8    1.23	1.26
   1265.1    1.20	1.29
   1291.5    1.18	1.32
   1318.9    1.16	1.34
