;  Optical constants for Re, single crystal with E perp. c
; 
;   taken from:
; 
;   Lynch et al, in
;
;   J. H. Weaver, C. Krafka, D. W. Lynch, and E. E. Koch, 'Physik Daten,
;   Physics Data: Optical Properties of Metals', Vol. 18-1 and 18-2,
;   Fach-information zentrum, Karlsruhe, 1981.
;   
;    Lambda (A)            n            k
;-----------------------------------------
   210.14    .65	.12
   213.76    .64	.16
   217.51    .65	.20
   221.39    .66	.23
   225.42    .68	.27
   229.59    .71	.29
   233.92    .75	.30
   238.42    .77	.30
   243.10    .79	.30
   247.96    .80	.30
   253.02    .81	.30
   258.29    .82	.30
   263.79    .83	.31
   269.52    .84	.31
   275.51    .87	.31
   281.77    .88	.28
   288.33    .88	.26
   295.19    .87	.25
   302.39    .87	.25
   309.95    .87	.25
   317.90    .88	.21
   326.26    .84	.19
   335.08    .80	.19
   344.39    .77	.19
   354.23    .74	.20
   364.65    .70	.22
   375.70    .67	.24
   381.48    .65	.25
   387.44    .64	.26
   399.94    .59	.29
   413.27    .55	.34
   427.52    .51	.41
   442.79    .49	.47
   449.20    .48	.50
   455.81    .47	.53
   462.61    .46	.57
   469.62    .46	.61
   476.85    .46	.64
   484.30    .47	.68
   491.98    .47	.72
   499.92    .48	.75
   508.11    .49	.79
   516.58    .50	.82
   525.34    .52	.85
   534.40    .53	.89
   543.77    .55	.92
   553.48    .56	.95
   563.55    .57	.98
   573.98    .58	1.02
   584.81    .60	1.06
   596.06    .61	1.10
   607.75    .64	1.15
   613.76    .65	1.17
   619.90    .67	1.21
   626.16    .70	1.23
   632.55    .72	1.25
   639.07    .74	1.27
   645.73    .76	1.29
   652.53    .79	1.31
   659.47    .82	1.33
   666.56    .85	1.35
   673.80    .88	1.36
   681.21    .92	1.37
   688.78    .95	1.38
   696.52    .99	1.39
   704.43    1.03	1.39
   712.53    1.06	1.39
   720.81    1.10	1.39
   729.29    1.14	1.38
   737.98    1.17	1.37
   746.87    1.21	1.35
   755.98    1.24	1.33
   765.31    1.26	1.30
   774.88    1.28	1.28
   784.68    1.29	1.26
   794.74    1.31	1.23
   805.06    1.31	1.20
   815.66    1.31	1.17
   826.53    1.29	1.14
   837.70    1.27	1.12
   849.18    1.24	1.12
   860.97    1.22	1.13
   873.10    1.21	1.14
   885.57    1.20	1.16
   898.41    1.19	1.18
   911.62    1.19	1.20
   925.22    1.20	1.21
   939.24    1.20	1.23
   953.69    1.21	1.25
   968.59    1.22	1.26
   983.97    1.23	1.27
   999.84    1.23	1.29
   1016.2    1.25	1.30
   1033.2    1.26	1.32
   1050.7    1.28	1.33
   1068.8    1.31	1.34
   1087.5    1.33	1.34
   1107.0    1.36	1.33
   1127.1    1.37	1.31
   1148.0    1.38	1.28
   1169.6    1.36	1.25
   1192.1    1.33	1.23
   1215.5    1.29	1.22
   1239.8    1.24	1.24
   1265.1    1.20	1.27
   1291.5    1.17	1.31
   1318.9    1.14	1.36
