;  Optical constants for Ru, single crystal w/ E || c
; 
;   taken from:
;
;   J. H. Weaver, C. Krafka, D. W. Lynch, and E. E. Koch, 'Physik Daten,
;   Physics Data: Optical Properties of Metals', Vol. 18-1 and 18-2,
;   Fach-information zentrum, Karlsruhe, 1981.
;   
;    Lambda (A)            n            k
;-----------------------------------------
   309.95    .83	.22
   317.90    .82	.22
   326.26    .80	.22
   335.08    .79	.23
   344.39    .77	.24
   354.23    .75	.25
   359.36    .74	.26
   364.65    .73	.27
   370.09    .72	.29
   375.70    .71	.30
   381.48    .70	.31
   387.44    .69	.33
   393.59    .68	.35
   399.94    .67	.37
   406.49    .67	.40
   413.27    .67	.43
   420.27    .67	.44
   427.52    .67	.46
   435.02    .67	.48
   442.79    .66	.51
   450.84    .66	.54
   459.19    .67	.57
   467.85    .67	.60
   476.85    .68	.63
   486.20    .69	.66
   495.92    .71	.69
   506.04    .73	.71
   516.58    .74	.74
   527.57    .75	.76
   539.04    .77	.79
   551.02    .79	.82
   563.55    .81	.86
   570.02    .81	.88
   576.65    .83	.90
   583.44    .85	.92
   590.38    .86	.94
   597.49    .89	.97
   604.78    .92	.99
   612.25    .95	1.01
   619.90    .99	1.02
   627.75    1.02	1.02
   635.79    1.05	1.02
   644.05    1.08	1.02
   652.53    1.11	1.02
   661.23    1.14	1.03
   670.16    1.18	1.02
   679.34    1.22	1.01
   688.78    1.26	.99
   698.48    1.30	.96
   708.46    1.32	.93
   718.72    1.34	.89
   729.29    1.34	.85
   740.18    1.33	.82
   751.39    1.32	.80
   762.95    1.31	.79
   774.88    1.30	.78
   784.68    1.29	.76
   794.74    1.28	.77
   805.06    1.28	.77
   826.53    1.27	.76
   837.70    1.27	.76
   849.18    1.27	.76
   860.97    1.27	.76
   873.10    1.27	.76
   885.57    1.28	.76
   898.41    1.28	.75
   911.62    1.28	.75
   925.22    1.28	.75
   939.24    1.28	.74
   953.69    1.28	.73
   968.59    1.27	.72
   983.97    1.27	.71
   999.84    1.26	.69
   1016.2    1.25	.68
   1033.2    1.23	.67
   1050.7    1.21	.66
   1068.8    1.18	.65
   1087.5    1.15	.65
   1107.0    1.12	.65
   1127.1    1.09	.65
   1148.0    1.05	.66
   1169.6    1.01	.67
   1192.1    .96	.69
   1215.5    .92	.72
   1239.8    .88	.76
   1265.1    .85	.81
   1291.5    .82	.86
   1318.9    .79	.91
