;  Optical constants for Sc
;  Density: 2.84 g/cm3
;  Film deposited at room temperature
;
;  taken from M. N. Polyanskiy, "Refractive index database," https://refractiveindex.info
;
;  REFERENCES: 
;  1) J. I. Larruquert, J. A. Aznárez, J. A. Méndez, A. M. Malvezzi, L. Poletto, S. Covini. 
;     Optical properties of scandium films in the far and the extreme ultraviolet, https://doi.org/10.1364/AO.43.003271
;     Appl. Opt. 43, 3271-3278 (2004)
;  2) M. Fernández-Perea, J. I. Larruquert, J. A. Aznárez, J. A. Méndez, L. Poletto, A. M. Malvezzi, A. Giglia, S. Nannarone. 
;     Determination of optical constants of scandium films in the 20-1000 eV range, https://doi.org/10.1364/JOSAA.23.002880
;     J. Opt. Soc. Am. A 23, 2880-2887 (2006) (Numerical data kindly provided to Refractive index database by Juan Larruquert)
;   
;    Lambda (A)            n            k
;-----------------------------------------
	12.39842    	0.99947778    	0.0001487
	12.52366    	0.99947003    	0.000153633
	12.65145    	0.99946013    	0.000157867
	12.78187    	0.99944962    	0.000163833
	12.91502    	0.99943911    	0.000169233
	13.05097    	0.99942781    	0.000175
	13.18981    	0.99941636    	0.000181667
	13.33163    	0.99940449    	0.000187867
	13.47654    	0.99939219    	0.0001953
	13.62464    	0.99937984    	0.0002026
	13.77602    	0.999367    	0.000210433
	13.93081    	0.99935399    	0.0002185
	14.08911    	0.99934017    	0.0002271
	14.25106    	0.99932604    	0.000236567
	14.41677    	0.99931177    	0.000246533
	14.58637    	0.99929731    	0.000257033
	14.76002    	0.99928261    	0.000267967
	14.93785    	0.99926812    	0.000279667
	15.12002    	0.99925292    	0.000290167
	15.30669    	0.99923652    	0.000302133
	15.49802    	0.9992198    	0.000314533
	15.6942    	0.99920137    	0.0003277
	15.89541    	0.99918335    	0.0003444
	16.10184    	0.99916558    	0.0003596
	16.31371    	0.99914711    	0.000377267
	16.53122    	0.99912952    	0.0003956
	16.75462    	0.99911072    	0.000412767
	16.98414    	0.9990915    	0.000433833
	17.22003    	0.99907366    	0.000454433
	17.46256    	0.99905299    	0.000472967
	17.71203    	0.99903131    	0.000498467
	17.96872    	0.99901203    	0.0005239
	18.23297    	0.99899234    	0.000549667
	18.50510    	0.99897199    	0.000576933
	18.78548    	0.9989523    	0.000606767
	19.07449    	0.99893345    	0.000636367
	19.37253    	0.99891203    	0.000665033
	19.68003    	0.99888797    	0.000699375
	19.99745    	0.99886508    	0.000739825
	20.32528    	0.99884904    	0.00078715
	20.66403    	0.99884185    	0.000829975
	21.01427    	0.99883057    	0.000859075
	21.37658    	0.99880363    	0.000891675
	21.75161    	0.99877636    	0.0009523
	22.14003    	0.99877878    	0.001028675
	22.54258    	0.99879564    	0.0010653
	22.96003    	0.99878343    	0.0010842
	23.39324    	0.99876993    	0.0011513
	23.84311    	0.99876196    	0.00119455
	24.31062    	0.99879903    	0.00130075
	24.79684    	0.99884482    	0.001267025
	25.3029    	0.99878703    	0.001240625
	25.83004    	0.99873864    	0.001356025
	26.37961    	0.99876898    	0.001433075
	26.95308    	0.99876442    	0.00142545
	27.55204    	0.99870106    	0.001490325
	28.17822    	0.99869976    	0.00164605
	28.87382    	0.99869764    	0.00167175
	28.90748    	0.99869467    	0.0016691
	28.94122    	0.99868807    	0.0016655
	28.97504    	0.99867884    	0.00166395
	29.00893    	0.99866829    	0.001663675
	29.04291    	0.99865738    	0.001665525
	29.07697    	0.99864627    	0.00166735
	29.1111    	0.99863413    	0.00167005
	29.14532    	0.99862215    	0.00167475
	29.17962    	0.99861075    	0.00167905
	29.21399    	0.99859916    	0.001683225
	29.24845    	0.99858758    	0.00168715
	29.28299    	0.99857534    	0.001689225
	29.31761    	0.99856034    	0.001689475
	29.35232    	0.99854235    	0.001690625
	29.3871    	0.99852149    	0.001691675
	29.42197    	0.99849724    	0.001694175
	29.45692    	0.99847031    	0.001698875
	29.49196    	0.99844048    	0.001705
	29.52707    	0.99840846    	0.001714875
	29.56228    	0.99837494    	0.001726075
	29.59756    	0.99833867    	0.001738675
	29.63293    	0.99829837    	0.001752875
	29.66839    	0.99825358    	0.001770675
	29.70393    	0.99820342    	0.001791825
	29.73954    	0.99814752    	0.001820025
	29.77526    	0.99808712    	0.001856575
	29.81106    	0.99802383    	0.0019034
	29.84694    	0.99795843    	0.001959875
	29.88291    	0.99789207    	0.002029275
	29.91896    	0.99782777    	0.002112125
	29.95511    	0.99776875    	0.00220855
	29.99134    	0.99771732    	0.0023159
	30.02765    	0.997674    	0.00243225
	30.06406    	0.99763926    	0.0025564
	30.10056    	0.99761114    	0.002685
	30.13714    	0.99758866    	0.00282175
	30.17381    	0.99757254    	0.002964875
	30.21057    	0.9975628    	0.003114525
	30.24742    	0.99755621    	0.003264475
	30.28436    	0.99753373    	0.00340815
	30.3214    	0.99746751    	0.0035698
	30.35852    	0.99735538    	0.00381155
	30.39573    	0.99724066    	0.0041979
	30.43304    	0.9972384    	0.0047884
	30.47043    	0.99751296    	0.005518
	30.50792    	0.99813274    	0.006153675
	30.5455    	0.99894583    	0.0064578
	30.58317    	0.99974127    	0.006487125
	30.62094    	1.0005489    	0.006428075
	30.6588    	1.0014017    	0.0060546
	30.69675    	1.0019413    	0.00516695
	30.7348    	1.0018487    	0.004250975
	30.77294    	1.0013113    	0.0038536
	30.81118    	1.0008194    	0.004153925
	30.84951    	1.0009671    	0.0049903
	30.88794    	1.0018058    	0.00539335
	30.92646    	1.0026717    	0.00506625
	30.96508    	1.0033194    	0.0046372
	31.0038    	1.0039535    	0.004069325
	31.04261    	1.0043389    	0.0030361
	31.08152    	1.0042501    	0.002032375
	31.12053    	1.0038906    	0.001289375
	31.15963    	1.003395    	0.00072575
	31.19884    	1.0028457    	0.000436967
	31.23814    	1.0023996    	0.000374333
	31.27754    	1.0020854    	0.0003498
	31.31705    	1.0018411    	0.000335333
	31.35665    	1.0016403    	0.000326767
	31.39635    	1.0014706    	0.000321467
	31.43615    	1.001324    	0.000317867
	31.47606    	1.0011952    	0.000315267
	31.51606    	1.0010805    	0.0003136
	31.55617    	1.0009776    	0.000312833
	31.59638    	1.0008843    	0.000311767
	31.63669    	1.0007988    	0.000311467
	31.6771    	1.0007206    	0.000311467
	31.71762    	1.0006484    	0.0003113
	31.75824    	1.0005818    	0.0003118
	31.79897    	1.000523    	0.000312667
	31.8398    	1.0004639    	0.000303
	32.20369    	1.0000472    	0.0003061
	32.62742    	0.99972734    	0.000317167
	33.06245    	0.99948701    	0.0003307
	33.50924    	0.99929185    	0.000347033
	33.96827    	0.99912522    	0.000363867
	34.44005    	0.99897632    	0.000380933
	34.92512    	0.99883985    	0.000400067
	35.42405    	0.99871064    	0.000418133
	35.93745    	0.99858725    	0.000441833
	36.46594    	0.99847105    	0.0004656
	37.01021    	0.99835455    	0.000484567
	37.57097    	0.99823471    	0.0005104
	38.14898    	0.99811892    	0.000544667
	38.74506    	0.99800691    	0.000576433
	39.36006    	0.99789526    	0.0006089
	39.9949    	0.997776    	0.000633499
	40.65055    	0.99763737    	0.000666064
	41.32806    	0.99749999    	0.00073805
	42.02854    	0.9973738    	0.000815845
	42.75317    	0.99729159    	0.000942107
	43.50322    	0.99730173    	0.001024377
	44.28007    	0.99722614    	0.000883356
	45.08516    	0.99704227    	0.000908018
	45.92007    	0.99688116    	0.000934299
	46.78649    	0.99671631    	0.000979147
	47.68623    	0.99654463    	0.001027
	48.62125    	0.99637665    	0.0011038
	49.59367    	0.99621505    	0.001166767
	50.60579    	0.99604049    	0.001231133
	51.66008    	0.99586231    	0.001310733
	52.75923    	0.99568392    	0.001384833
	53.90617    	0.99549131    	0.001453167
	55.10408    	0.9952835    	0.001531867
	56.35645    	0.99507026    	0.001617233
	57.66706    	0.99483544    	0.001685867
	59.04009    	0.99455658    	0.0017718
	60.48009    	0.99430209    	0.001939033
	61.99209    	0.99404183    	0.002005
	63.58163    	0.99371882    	0.002126333
	65.25484    	0.99339006    	0.002280167
	67.01848    	0.99306043    	0.002443667
	68.8801    	0.9927201    	0.002603233
	70.84811    	0.99234873    	0.002750933
	72.93187    	0.99192835    	0.002904
	75.14193    	0.99145648    	0.003080733
	77.49012    	0.99093924    	0.003294267
	79.9898    	0.99039597    	0.0035538
	82.65612    	0.98982628    	0.003822367
	85.50634    	0.98920465    	0.004106067
	88.56013    	0.98853739    	0.004435366
	91.84014    	0.98786404    	0.004795167
	95.37245    	0.98714296    	0.005064767
	99.18735    	0.98624941    	0.005261
	103.32016    	0.98511477    	0.005494167
	107.81234    	0.98379394    	0.0058936
	112.7129    	0.98237769    	0.006404
	118.08018    	0.98082008    	0.0068937
	123.98419    	0.9790431    	0.007392
	124.60722    	0.97885842    	0.007435167
	125.23655    	0.97866883    	0.007477667
	125.87227    	0.97847616    	0.007516933
	126.51448    	0.97827824    	0.0075522
	127.16327    	0.97807463    	0.007586533
	127.81875    	0.97786628    	0.007619067
	128.48102    	0.9776521    	0.0076489
	129.1502    	0.97743122    	0.007677667
	129.82637    	0.97720486    	0.0077065
	130.50967    	0.97697136    	0.007732033
	131.2002    	0.97673102    	0.0077606
	131.89807    	0.9764854    	0.007788033
	132.60341    	0.97623543    	0.0078173
	133.31633    	0.97597953    	0.007841733
	134.03696    	0.97571753    	0.007868833
	134.76542    	0.9754493    	0.007890867
	135.50184    	0.97517301    	0.007914167
	136.24636    	0.9748901    	0.0079361
	136.9991    	0.9745996    	0.007957367
	137.76021    	0.97430314    	0.007979199
	138.52982    	0.97399986    	0.0079964
	139.30808    	0.97368552    	0.0080101
	140.09513    	0.97335968    	0.008024934
	140.89112    	0.97302452    	0.008041266
	141.69621    	0.97267961    	0.008057167
	142.51056    	0.97232519    	0.008075667
	143.33432    	0.97196277    	0.008095033
	144.16766    	0.97159265    	0.0081147
	145.01075    	0.97121403    	0.008132267
	145.86375    	0.97082485    	0.008147866
	146.72685    	0.9704248    	0.008163134
	147.60022    	0.97001383    	0.008176967
	148.48406    	0.96959128    	0.008189834
	149.37854    	0.96915779    	0.008201733
	150.28386    	0.96871049    	0.008208401
	151.20023    	0.96824867    	0.0082162
	152.12784    	0.96777074    	0.008218766
	153.0669    	0.96727452    	0.008224066
	154.01762    	0.96676293    	0.0082316
	154.98023    	0.96623903    	0.008241434
	155.95495    	0.96569875    	0.0082434
	156.94201    	0.96513764    	0.008246667
	157.94164    	0.96455831    	0.008250433
	158.95409    	0.96395942    	0.008251733
	159.9796    	0.96333535    	0.008249734
	161.01843    	0.96268641    	0.0082545
	162.07083    	0.96201691    	0.008261967
	163.13709    	0.96132089    	0.0082662
	164.21747    	0.96059497    	0.008279233
	165.31225    	0.95986066    	0.008309701
	166.42173    	0.95907451    	0.008284533
	167.54620    	0.95824621    	0.008346367
	168.68597    	0.95742286    	0.008397333
	169.84135    	0.95657013    	0.008443
	171.01267    	0.95568518    	0.008502833
	172.20026    	0.95478445    	0.0085828
	173.40446    	0.95390313    	0.008668333
	174.62562    	0.95292701    	0.008612333
	175.8641    	0.95188269    	0.0087375
	177.12027    	0.95088705    	0.008815533
	178.39451    	0.94979766    	0.008789034
	179.68723    	0.94861402    	0.0088698
	180.99881    	0.94740884    	0.008960167
	182.32969    	0.94616025    	0.0090618
	183.68028    	0.94485944    	0.0091701
	185.05103    	0.94349965    	0.009294501
	186.44239    	0.94207915    	0.009437201
	187.85483    	0.94059581    	0.0096025
	189.28884    	0.93904679    	0.009791633
	190.7449    	0.93743029    	0.0100108
	192.22355    	0.93574544    	0.0102605
	193.72529    	0.93399017    	0.01054357
	195.25069    	0.93216146    	0.01085953
	196.80030    	0.93025506    	0.01121037
	198.3747    	0.92826156    	0.01159303
	199.9745    	0.92617098    	0.0120187
	201.6003    	0.92397682    	0.01249337
	203.25277    	0.9216732    	0.01302853
	204.93254    	0.91925707    	0.01363277
	206.64031    	0.91672151    	0.01431193
	208.37679    	0.91406298    	0.01508343
	210.14269    	0.91128059    	0.01595237
	211.93878    	0.90836609    	0.01692653
	213.76584    	0.90531509    	0.0180246
	215.62467    	0.90212509    	0.01925457
	217.51612    	0.89879037    	0.02063033
	219.44104    	0.89530528    	0.02216373
	221.40033    	0.8916553    	0.0238653
	223.39493    	0.88783492    	0.0257712
	225.4258    	0.88384277    	0.027887
	227.49392    	0.87965729    	0.03022057
	229.60035    	0.87521682    	0.03276933
	231.74614    	0.87012394    	0.0355145
	233.93243    	0.86531112    	0.0400537
	236.16036    	0.86091211    	0.043753
	238.43113    	0.85597853    	0.0479063
	240.746    	0.85079028    	0.0526159
	243.10625    	0.84544469    	0.0579626
	245.51324    	0.84008103    	0.0640178
	247.96837    	0.83485054    	0.0706509
	250.47311    	0.8290099    	0.0772409
	253.02895    	0.82290388    	0.0860005
	255.6375    	0.81712154    	0.0954151
	258.30039    	0.81165958    	0.1065594
	261.01934    	0.80689268    	0.1187083
	263.79614    	0.80278509    	0.1322393
	266.63266    	0.79970271    	0.1472221
	269.53084    	0.79807594    	0.1636099
	272.49272    	0.79833143    	0.1809995
	275.52042    	0.79867795    	0.1979234
	278.61615    	0.80199013    	0.2212311
	281.78224    	0.81072374    	0.242719
	285.02112    	0.82431474    	0.2644583
	288.33532    	0.84033678    	0.2796292
	291.7275    	0.85634569    	0.2949456
	295.20045    	0.87617114    	0.3099536
	298.75708    	0.89611221    	0.3171445
	302.40046    	0.91561888    	0.3273756
	306.1338    	0.93667826    	0.3332805
	309.96047    	0.95956572    	0.3401358
	313.88402    	0.98326393    	0.3399111
	317.90817    	1.0054531    	0.3394477
	322.03685    	1.0286824    	0.3371553
	326.27418    	1.052027    	0.3309384
	330.6245    	1.074469    	0.3220632
	335.09240    	1.0964089    	0.3102569
	339.68271    	1.1150915    	0.2929413
	344.40052    	1.1311207    	0.2771055
	349.25123    	1.1451071    	0.2566009
	354.24054    	1.1544773    	0.2354435
	359.37446    	1.1611881    	0.2154721
	364.65937    	1.1661726    	0.1943822
	370.10205    	1.1666912    	0.1708839
	375.70966    	1.1619269    	0.1501374
	381.48981    	1.1545898    	0.1332015
	387.45059    	1.1455816    	0.1186781
	393.60060    	1.1351954    	0.1080913
	399.94899    	1.1267189    	0.1030673
	406.50553    	1.1233612    	0.0994652
	413.28062    	1.1245838    	0.092102
	420.28538    	1.1226327    	0.07502463
	427.53168    	1.1133295    	0.06016683
	435.03224    	1.1034403    	0.05073867
	442.80067    	1.0924582    	0.03714983
	450.85159    	1.0742562    	0.0247513
	459.20069    	1.0552985    	0.02450083
	467.86486    	1.0410119    	0.02493387
	476.86226    	1.0283395    	0.0256831
	486.2125    	1.0165236    	0.02671593
	495.93675    	1.0052265    	0.02799917
	506.05791    	0.99420114    	0.02945927
	516.60078    	0.98319204    	0.03109603
	527.59229    	0.97214022    	0.03311273
	539.06168    	0.96097557    	0.03527263
	551.04083    	0.9494425    	0.03759887
	563.56449    	0.93731146    	0.0401684
	576.67064    	0.92443425    	0.04318963
	590.40089    	0.91063891    	0.0467066
	604.80091    	0.89573259    	0.0510144
	619.92094    	0.87916097    	0.0562095
	671.02267    	0.8260673    	0.0833
	735.0247    	0.74582136    	0.1218
	834.02802    	0.69110704    	0.2948
	920.03087    	0.64958198    	0.326
	964.03225    	0.60686449    	0.4087
	1048.03563    	0.5358936    	0.536
	1067.0364    	0.55208393    	0.6662
	1134.03836    	0.6340697    	0.6931
	1200.04014    	0.66370242    	0.821
	1244.04201    	0.71222426    	0.868
	1320.04448    	0.80879241    	0.95
	1413.0476    	0.8591701    	0.909
	1494.05036    	0.86904031    	1.006
	1745.05895    	1.0315365    	1.147
	1795.97872    	1.0712365    	1.149598
	1846.89943    	1.0982708    	1.152196
	1897.81921    	1.1198012    	1.154793