;  Optical constants for Se, extraordinary ray
; 
;   taken from:
;
;   'Handbook of Optical Constants of Solids II', Ed. by Edward D. Palik,
;   Academic Press, Inc., 1991.
;   
;    Lambda (A)            n            k
;-----------------------------------------
       413.267      0.870000      0.110000
       427.517      0.860000      0.120000
       442.786      0.850000      0.130000
       459.185      0.850000      0.140000
       476.846      0.860000      0.150000
       495.920      0.880000      0.170000
       516.583      0.910000      0.180000
       539.043      0.920000      0.190000
       563.545      0.810000      0.250000
       590.381      0.740000      0.310000
       619.900      0.690000      0.360000
       652.526      0.640000      0.400000
       688.778      0.650000      0.480000
       729.294      0.660000      0.530000
       774.875      0.650000      0.610000
       826.533      0.700000      0.710000
       855.034      0.600000      0.920000
       855.034      0.800000      0.850000
       885.571      0.760000      0.820000
       885.571      0.810000      0.910000
       918.370      0.810000      0.870000
       918.370      0.860000      0.960000
       953.692      0.880000      0.910000
       953.692      0.890000       1.02000
       991.840      0.980000      0.950000
       991.840      0.920000       1.06000
       1033.17       1.09000      0.920000
       1033.17       1.00000       1.10000
       1078.09       1.05000      0.860000
       1078.09       1.04000       1.10000
       1127.09      0.950000      0.900000
       1127.09       1.03000       1.08000
       1158.69      0.900000       1.16000
       1180.76      0.920000      0.980000
       1180.76      0.910000       1.28000
       1239.80      0.920000       1.07000
       1239.80       1.03000       1.46000
       1278.14       1.11000       1.51000
       1305.05       1.18000       1.54000
       1347.61       1.25000       1.60000
       1377.56       1.35000       1.64000
       1425.06       1.46000       1.59000
       1458.59       1.48000       1.52000
       1502.79       1.38000       1.48000
       1549.75       1.35000       1.68000
       1599.74       1.58000       1.82000
       1653.07       1.84000       1.83000
       1710.07       1.96000       1.60000
       1771.14       1.84000       1.45000
       1836.74       1.83000       1.43000
       1907.38       1.72000       1.35000
       1983.68       1.62000       1.38000
       2066.33       1.57000       1.49000
       2156.17       1.51000       1.62000
       2254.18       1.47000       1.75000
       2361.52       1.43000       2.00000
       2479.60       1.50000       2.31000
       2610.11       1.69000       2.53000
       2755.11       1.92000       2.78000
       2917.18       2.22000       3.06000
       3443.89       3.39000       3.01000
       3646.47       3.69000       2.76000
       3874.38       3.92000       2.59000
       4132.67       4.44000       2.29000
       4427.86       4.59000       1.70000
       4768.46       4.40000       1.32000
       5165.83       4.28000       1.21000
       5635.45       4.49000       1.19000
       6199.00       4.79000      0.760000
       6887.78       4.46000     0.0220000
       9998.39       3.64000   5.81000e-05
       11109.3       3.59200   6.37000e-05
       12499.2       3.55100   7.11000e-05
       14285.1       3.51600   8.07000e-05
       16666.2       3.48600   9.42000e-05
       20000.0       3.46200   0.000112000
       25001.0       3.44200   0.000141000
       33328.0       3.42700   0.000190000
       39993.5       3.42200   0.000226000
       49991.9       3.41700   0.000267000
       66655.9       3.41300   0.000281000
       79987.1       3.41100       0.00000
       99983.9       3.41000   0.000271000
       111093.       3.40900   0.000287000
       124992.       3.40900   0.000323000
       142851.       3.40800   0.000432000
       166662.       3.40700   0.000444000
       200000.       3.40500    0.00135000
       250010.       3.40300    0.00279000
       333280.       3.39700     0.0172000
       399936.       3.39100   0.000626000
       499919.       3.37700     0.0239000
       526231.       3.37200    0.00196000
       555466.       3.36600     0.0531000
       588140.       3.35800    0.00340000
       624899.       3.34600     0.0423000
       666559.       3.33000    0.00704000
       714170.       3.30600     0.0381000
       769107.       3.26300    0.00213000
       833199.       3.17500     0.0995000
       908944.       2.91400      0.248000
       952227.       2.86200      0.891000
       970869.       3.75400       1.57000
       980079.       3.67600       1.70000
       990256.       3.88400       1.07000
       999839.       4.02600      0.477000
   1.02041e+06       3.88500      0.514000
   1.11093e+06       3.77200      0.128000
   1.24992e+06       3.63300     0.0169000
   1.42851e+06       3.57500    0.00807000
   1.66662e+06       3.54500    0.00531000
   2.00000e+06       3.52600    0.00557000
   2.50010e+06       3.51500    0.00418000
   3.33280e+06       3.50700    0.00584000
   4.99919e+06       3.50200    0.00855000
   9.99839e+06       3.49900     0.0159000
