;  Optical constants for cubic Si0.25Ge0.75 (alternate)
; 
;   taken from:
;
;   'Handbook of Optical Constants of Solids II', Ed. by Edward D. Palik,
;   Academic Press, Inc., 1991.
;   
;    Lambda (A)            n            k
;-----------------------------------------
       2213.93       1.28000       2.89000
       2254.18       1.33000       2.87000
       2295.93       1.34000       2.87000
       2339.25       1.33000       2.90000
       2384.23       1.33000       2.96000
       2393.44       1.32000       2.98000
       2402.71       1.33000       3.00000
       2412.06       1.33000       3.01000
       2421.48       1.33000       3.04000
       2430.98       1.33000       3.06000
       2440.55       1.33000       3.08000
       2450.20       1.34000       3.10000
       2459.92       1.34000       3.12000
       2469.72       1.35000       3.15000
       2479.60       1.35000       3.17000
       2489.56       1.36000       3.20000
       2499.60       1.37000       3.22000
       2509.72       1.37000       3.25000
       2519.92       1.38000       3.28000
       2530.20       1.40000       3.31000
       2540.57       1.40000       3.34000
       2551.03       1.42000       3.37000
       2561.57       1.43000       3.40000
       2572.20       1.44000       3.44000
       2582.92       1.45000       3.47000
       2593.72       1.47000       3.50000
       2604.62       1.48000       3.54000
       2615.61       1.50000       3.58000
       2626.70       1.52000       3.62000
       2637.87       1.54000       3.66000
       2649.15       1.56000       3.70000
       2660.52       1.58000       3.74000
       2671.98       1.61000       3.79000
       2683.55       1.64000       3.84000
       2695.22       1.67000       3.89000
       2706.99       1.71000       3.94000
       2718.86       1.74000       3.99000
       2730.84       1.79000       4.05000
       2742.92       1.84000       4.10000
       2755.11       1.89000       4.16000
       2767.41       1.95000       4.23000
       2779.82       2.02000       4.29000
       2792.34       2.10000       4.35000
       2804.98       2.19000       4.41000
       2817.73       2.30000       4.46000
       2830.59       2.42000       4.51000
       2843.58       2.54000       4.54000
       2856.68       2.68000       4.55000
       2869.91       2.81000       4.54000
       2883.26       2.95000       4.51000
       2896.73       3.08000       4.48000
       2910.33       3.19000       4.42000
       2924.06       3.29000       4.35000
       2937.91       3.38000       4.29000
       2951.90       3.46000       4.21000
       2966.03       3.52000       4.14000
       2980.29       3.58000       4.06000
       2994.69       3.62000       3.99000
       3009.22       3.67000       3.92000
       3023.90       3.70000       3.85000
       3038.73       3.72000       3.79000
       3053.69       3.75000       3.73000
       3068.81       3.77000       3.68000
       3084.08       3.79000       3.63000
       3099.50       3.80000       3.58000
       3115.08       3.82000       3.53000
       3130.81       3.83000       3.49000
       3146.70       3.84000       3.45000
       3162.76       3.86000       3.41000
       3178.97       3.87000       3.37000
       3195.36       3.88000       3.34000
       3211.92       3.89000       3.30000
       3228.65       3.90000       3.27000
       3245.55       3.92000       3.24000
       3262.63       3.92000       3.22000
       3279.89       3.93000       3.19000
       3297.34       3.95000       3.16000
       3314.97       3.96000       3.13000
       3332.80       3.96000       3.11000
       3350.81       3.98000       3.09000
       3369.02       3.99000       3.06000
       3387.43       4.00000       3.04000
       3406.04       4.01000       3.02000
       3424.86       4.02000       3.00000
       3443.89       4.03000       2.98000
       3463.13       4.04000       2.96000
       3482.58       4.05000       2.94000
       3502.26       4.06000       2.93000
       3522.16       4.08000       2.91000
       3542.29       4.09000       2.89000
       3562.64       4.11000       2.87000
       3583.24       4.13000       2.85000
       3604.07       4.14000       2.84000
       3625.15       4.16000       2.82000
       3646.47       4.18000       2.80000
       3668.05       4.20000       2.78000
       3689.88       4.21000       2.76000
       3711.98       4.23000       2.75000
       3734.34       4.25000       2.72000
       3756.97       4.27000       2.70000
       3779.88       4.28000       2.68000
       3803.07       4.30000       2.65000
       3826.54       4.31000       2.62000
       3850.31       4.32000       2.60000
       3874.38       4.34000       2.57000
       3898.74       4.35000       2.55000
       3923.42       4.35000       2.52000
       3948.41       4.36000       2.49000
       3973.72       4.36000       2.47000
       3999.35       4.36000       2.45000
       4025.32       4.36000       2.43000
       4051.63       4.36000       2.41000
       4078.29       4.36000       2.40000
       4105.30       4.36000       2.39000
       4132.67       4.36000       2.38000
       4160.40       4.36000       2.38000
       4188.51       4.37000       2.38000
       4217.01       4.38000       2.38000
       4245.89       4.38000       2.38000
       4275.17       4.40000       2.39000
       4304.86       4.42000       2.39000
       4334.97       4.43000       2.40000
       4365.49       4.45000       2.41000
       4396.45       4.48000       2.41000
       4427.86       4.50000       2.42000
       4459.71       4.54000       2.42000
       4492.03       4.57000       2.43000
       4524.82       4.62000       2.44000
       4558.09       4.66000       2.45000
       4591.85       4.72000       2.45000
       4626.12       4.78000       2.45000
       4660.90       4.85000       2.45000
       4696.21       4.92000       2.44000
       4732.06       5.00000       2.42000
       4768.46       5.07000       2.39000
       4805.43       5.15000       2.35000
       4842.97       5.23000       2.30000
       4881.10       5.30000       2.24000
       4919.84       5.37000       2.18000
       4959.20       5.45000       2.11000
       4999.19       5.53000       2.03000
       5039.84       5.59000       1.93000
       5081.15       5.65000       1.82000
       5123.14       5.70000       1.70000
       5165.83       5.72000       1.57000
       5209.24       5.74000       1.43000
       5253.39       5.72000       1.30000
       5298.29       5.69000       1.17000
       5343.97       5.65000       1.08000
       5390.44       5.60000      0.980000
       5437.72       5.55000      0.890000
       5485.84       5.49000      0.810000
       5534.82       5.44000      0.750000
       5584.68       5.39000      0.670000
       5635.45       5.33000      0.640000
       5687.16       5.29000      0.580000
       5739.81       5.23000      0.540000
       5793.46       5.19000      0.490000
       5848.11       5.15000      0.460000
       5903.81       5.11000      0.430000
       5960.58       5.07000      0.380000
       6018.45       5.03000      0.370000
       6077.45       5.00000      0.350000
       6137.62       4.96000      0.330000
       6199.00       4.93000       0.00000
       6261.62       4.90000      0.300000
       6325.51       4.87000       0.00000
       6390.72       4.83000       0.00000
       6457.29       4.81000       0.00000
       6525.26       4.78000       0.00000
       6594.68       4.75000       0.00000
       6665.59       4.72000       0.00000
       6738.04       4.69000       0.00000
       6812.09       4.67000       0.00000
       6887.78       4.65000       0.00000
       6965.17       4.63000       0.00000
       7044.32       4.60000       0.00000
       7125.29       4.58000       0.00000
       7208.14       4.56000       0.00000
       7292.94       4.54000       0.00000
       7379.76       4.51000       0.00000
       7468.67       4.49000       0.00000
