;  Optical constants for Si0.8Ge0.2
; 
;   taken from:
;
;   'Handbook of Optical Constants of Solids II', Ed. by Edward D. Palik,
;   Academic Press, Inc., 1991.
;   
;    Lambda (A)            n            k
;-----------------------------------------
       968.594      0.640000      0.780000
       983.968      0.650000      0.800000
       1016.23      0.650000      0.840000
       1050.68      0.640000      0.880000
       1087.54      0.630000      0.920000
       1127.09      0.620000      0.980000
       1169.62      0.610000       1.04000
       1215.49      0.600000       1.11000
       1265.10      0.600000       1.20000
       1318.94      0.600000       1.29000
       1377.56      0.600000       1.40000
       1441.63      0.630000       1.51000
       1511.95      0.650000       1.63000
       1569.37      0.670000       1.73000
       1589.49      0.670000       1.76000
       1675.41      0.690000       1.95000
       1771.14      0.770000       2.18000
       1796.81      0.820000       2.25000
       1823.24      0.870000       2.30000
       1850.45      0.910000       2.34000
       1878.48      0.950000       2.38000
       1907.38      0.990000       2.42000
       1937.19       1.02000       2.45000
       1967.94       1.05000       2.51000
       1999.68       1.08000       2.57000
       2032.46       1.12000       2.64000
       2066.33       1.18000       2.71000
       2101.36       1.24000       2.78000
       2175.09       1.40000       2.89000
       2213.93       1.48000       2.92000
       2254.18       1.56000       2.95000
       2295.93       1.62000       2.96000
       2339.25       1.66000       2.98000
       2384.23       1.67000       3.01000
       2430.98       1.67000       3.08000
       2479.60       1.67000       3.19000
       2530.20       1.69000       3.36000
       2582.92       1.75000       3.56000
       2610.11       1.81000       3.68000
       2637.87       1.88000       3.80000
       2666.24       1.95000       3.95000
       2695.22       2.07000       4.10000
       2706.99       2.12000       4.16000
       2718.86       2.19000       4.23000
       2730.84       2.25000       4.29000
       2742.92       2.33000       4.35000
       2755.11       2.41000       4.41000
       2767.41       2.51000       4.47000
       2779.82       2.60000       4.52000
       2792.34       2.71000       4.58000
       2804.98       2.83000       4.62000
       2817.73       2.96000       4.66000
       2830.59       3.10000       4.70000
       2843.58       3.25000       4.72000
       2856.68       3.41000       4.72000
       2869.91       3.59000       4.70000
       2883.26       3.76000       4.64000
       2896.73       3.92000       4.54000
       2910.33       4.04000       4.44000
       2924.06       4.15000       4.34000
       2937.91       4.23000       4.23000
       2951.90       4.32000       4.14000
       2966.03       4.40000       4.03000
       2980.29       4.45000       3.89000
       2994.69       4.47000       3.78000
       3009.22       4.49000       3.69000
       3023.90       4.51000       3.60000
       3038.73       4.52000       3.52000
       3053.69       4.52000       3.45000
       3068.81       4.53000       3.38000
       3084.08       4.53000       3.32000
       3099.50       4.53000       3.26000
       3138.73       4.54000       3.13000
       3178.97       4.54000       3.03000
       3220.26       4.54000       2.95000
       3262.63       4.55000       2.88000
       3306.13       4.57000       2.81000
       3350.81       4.60000       2.76000
       3396.71       4.63000       2.71000
       3443.89       4.66000       2.67000
       3492.39       4.71000       2.64000
       3542.29       4.77000       2.61000
       3562.64       4.80000       2.61000
       3583.24       4.84000       2.60000
       3604.07       4.88000       2.59000
       3625.15       4.92000       2.58000
       3646.47       4.98000       2.57000
       3668.05       5.03000       2.55000
       3689.88       5.10000       2.53000
       3711.98       5.17000       2.50000
       3734.34       5.24000       2.46000
       3756.97       5.32000       2.42000
       3779.88       5.40000       2.36000
       3803.07       5.48000       2.28000
       3826.54       5.55000       2.19000
       3850.31       5.62000       2.10000
       3874.38       5.68000       1.99000
       3898.74       5.73000       1.87000
       3923.42       5.76000       1.75000
       3948.41       5.79000       1.62000
       3973.72       5.80000       1.48000
       3999.35       5.79000       1.34000
       4064.92       5.66000       1.03000
       4132.67       5.49000      0.810000
       4202.71       5.32000      0.650000
       4275.17       5.15000      0.550000
       4350.18       5.00000      0.470000
       4427.86       4.88000      0.430000
       4508.36       4.76000       0.00000
       4591.85       4.65000       0.00000
       4678.49       4.56000       0.00000
       4768.46       4.50000       0.00000
       4861.96       4.44000       0.00000
       4959.20       4.39000       0.00000
       5060.41       4.35000       0.00000
       5165.83       4.30000       0.00000
       5390.44       4.23000       0.00000
       5635.45       4.16000       0.00000
       5903.81       4.11000       0.00000
       6199.00       4.05000       0.00000
       6525.26       4.00000       0.00000
       6887.78       3.96000       0.00000
       7292.94       3.91000       0.00000
       7748.75       3.87000       0.00000
       8265.33       3.84000       0.00000
       8855.71       3.80000       0.00000
       9536.92       3.76000       0.00000
       10331.7       3.73000       0.00000
       11270.9       3.69000       0.00000
       12398.0       3.65000       0.00000
       13775.6       3.63000       0.00000
       15497.5       3.60000       0.00000
       17711.4       3.58000       0.00000
       20663.3       3.56000       0.00000
       24796.0       3.55000       0.00000
       30995.0       3.53000       0.00000
       41326.7       3.52000       0.00000
       61990.0       3.52000       0.00000
       123980.       3.51000       0.00000
