;  Optical constants for crystalline Si
; 
;   taken from:
;
;   'Handbook of Optical Constants of Solids', Ed. by Edward D. Palik,
;   Academic Press, Inc., 1985.
;   
;    Lambda (A)            n            k
;-----------------------------------------
       6.19900      0.999905   3.19000e-05
       6.35143      0.999913   3.46000e-05
       6.50814      0.999922   3.76000e-05
       6.66559      0.999932   4.08000e-05
       6.83085      0.999911   3.93000e-06
       6.99661      0.999885   4.32000e-06
       7.16647      0.999874   4.74000e-06
       7.34479      0.999863   5.20000e-06
       7.52306      0.999854   5.70000e-06
       7.70541      0.999844   6.24000e-06
       7.89682      0.999834   6.85000e-06
       8.08741      0.999824   7.49000e-06
       8.28743      0.999814   8.22000e-06
       8.49178      0.999803   8.99000e-06
       8.69425      0.999792   9.81000e-06
       8.90661      0.999781   1.07000e-05
       9.12960      0.999769   1.17000e-05
       9.34993      0.999756   1.28000e-05
       9.58114      0.999743   1.40000e-05
       9.81631      0.999729   1.53000e-05
       10.0552      0.999715   1.67000e-05
       10.2973      0.999700   1.83000e-05
       10.5515      0.999684   2.00000e-05
       10.8091      0.999667   2.18000e-05
       11.0795      0.999649   2.39000e-05
       11.3431      0.999631   2.60000e-05
       11.6195      0.999612   2.84000e-05
       11.9097      0.999591   3.10000e-05
       12.2028      0.999570   3.39000e-05
       12.4980      0.999548   3.70000e-05
       12.8079      0.999524   4.04000e-05
       13.1196      0.999500   4.41000e-05
       13.4323      0.999474   4.80000e-05
       13.7603      0.999447   5.24000e-05
       14.1047      0.999418   5.73000e-05
       14.4499      0.999388   6.25000e-05
       14.7947      0.999358   6.80000e-05
       15.1565      0.999325   7.42000e-05
       15.5363      0.999289   8.11000e-05
       15.9153      0.999253   8.84000e-05
       16.3132      0.999214   9.66000e-05
       16.7089      0.999174   0.000105000
       17.1007      0.999134   0.000114000
       17.5361      0.999088   0.000125000
       17.9681      0.999041   0.000136000
       18.3947      0.998990   0.000148000
       18.8419      0.998940   0.000161000
       19.3115      0.998890   0.000176000
       19.7735      0.998830   0.000191000
       20.2582      0.998780   0.000208000
       20.7672      0.998710   0.000227000
       21.2659      0.998650   0.000247000
       21.7891      0.998580   0.000269000
       22.3387      0.998510   0.000294000
       22.8745      0.998430   0.000319000
       23.4367      0.998360   0.000347000
       24.0271      0.998270   0.000379000
       24.5992      0.998190   0.000411000
       25.1992      0.998100   0.000447000
       25.8292      0.998000   0.000487000
       26.4350      0.997910   0.000527000
       27.0699      0.997810   0.000572000
       27.7360      0.997700   0.000622000
       28.4358      0.997590   0.000677000
       29.1033      0.997480   0.000734000
       29.8747      0.997350   0.000801000
       30.5369      0.997230   0.000863000
       31.3081      0.997100   0.000939000
       32.1192      0.996950    0.00102000
       32.8859      0.996820    0.00111000
       33.6902      0.996670    0.00120000
       34.5348      0.996510    0.00131000
       35.3219      0.996360    0.00141000
       36.2515      0.996190    0.00153000
       37.1198      0.996020    0.00166000
       38.0307      0.995850    0.00180000
       38.9874      0.995660    0.00195000
       39.8650      0.995490    0.00210000
       40.9175      0.995280    0.00229000
       41.8851      0.995090    0.00247000
       42.8997      0.994890    0.00267000
       43.9645      0.994680    0.00288000
       45.0836      0.994460    0.00313000
       46.0892      0.994270    0.00336000
       47.3206      0.994030    0.00365000
       48.4297      0.993820    0.00393000
       49.5920      0.993610    0.00423000
       50.8115      0.993390    0.00457000
       52.0924      0.993180    0.00494000
       53.4397      0.992960    0.00534000
       54.6167      0.992770    0.00570000
       56.0995      0.992540    0.00619000
       57.3981      0.992360    0.00663000
       58.7583      0.992190    0.00712000
       60.1845      0.992060    0.00763000
       61.6816      0.991920    0.00818000
       63.2551      0.991790    0.00879000
       64.9110      0.991690    0.00946000
       66.2995      0.991670     0.0100000
       68.1209      0.991640     0.0107000
       69.6517      0.991640     0.0114000
       71.2529      0.991670     0.0121000
       72.9294      0.991760     0.0128000
       74.6867      0.992350     0.0145000
       76.5309      0.992350     0.0145000
       78.4684      0.992870     0.0152000
       80.5065      0.993400     0.0157000
       82.6533      0.993840     0.0162000
       84.3401      0.994150     0.0166000
       86.6993      0.994600     0.0172000
       88.5571      0.994960     0.0177000
       91.1618      0.995490     0.0183000
       93.2180      0.995940     0.0188000
       95.3692      0.996450     0.0194000
       97.6220      0.997050     0.0200000
       99.9839      0.997730     0.0206000
       102.463      0.998560     0.0212000
       105.068      0.999580     0.0219000
       107.809       1.00080     0.0226000
       110.696       1.00240     0.0233000
       112.709       1.00390     0.0239000
       115.869       1.00700     0.0247000
       119.212       1.01320     0.0256000
       121.549       1.02410     0.0262000
       122.028       1.02500     0.0240000
       122.996       1.03000    0.00500000
       123.980       1.03200    0.00154000
       124.992       1.03400    0.00100000
       125.996       1.03400    0.00102000
       127.999       1.03400    0.00109000
       129.999       1.03000    0.00113000
       131.992       1.02200    0.00120000
       135.988       1.00800    0.00130000
       139.995       1.00000    0.00143000
       149.988      0.993000    0.00178000
       159.995      0.991000    0.00215000
       169.999      0.988000    0.00254000
       179.994      0.985000    0.00297000
       189.979      0.982000    0.00343000
       200.000      0.978000    0.00393000
       209.993      0.976000    0.00443000
       219.979      0.972000    0.00500000
       229.976      0.968000    0.00553000
       239.992      0.964000    0.00610000
       250.010      0.960000    0.00670000
       259.971      0.956000    0.00730000
       269.991      0.952000    0.00785000
       279.991      0.947000    0.00840000
       290.012      0.942000    0.00900000
       299.976      0.937000    0.00950000
       309.950      0.930000     0.0100000
       319.948      0.925000     0.0104000
       329.997      0.918000     0.0100000
       339.951      0.913000     0.0113000
       350.028      0.906000     0.0117000
       359.988      0.899000     0.0121000
       369.979      0.893000     0.0124000
       379.957      0.885000     0.0128000
       389.997      0.877000     0.0132000
       399.935      0.869000     0.0135000
       409.987      0.860000     0.0138000
       419.986      0.853000     0.0142000
       430.038      0.843000     0.0147000
       439.957      0.834000     0.0152000
       450.018      0.824000     0.0158000
       460.037      0.814000     0.0168000
       469.977      0.803000     0.0178000
       479.985      0.792000     0.0192000
       490.040      0.778000     0.0205000
       499.919      0.766000     0.0223000
       509.996      0.752000     0.0243000
       520.050      0.737000     0.0264000
       530.056      0.722000     0.0292000
       539.983      0.706000     0.0325000
       550.044      0.691000     0.0365000
       559.982      0.675000     0.0405000
       570.023      0.659000     0.0455000
       579.888      0.644000     0.0510000
       590.100      0.627000     0.0580000
       600.097      0.610000     0.0650000
       609.838      0.590000     0.0740000
       619.900      0.567000     0.0835000
       619.900      0.569000      0.122000
       629.980      0.549000     0.0930000
       635.795      0.542000      0.140000
       640.062      0.530000      0.100000
       650.131      0.513000      0.113000
       652.526      0.514000      0.163000
       670.162      0.485000      0.189000
       688.778      0.455000      0.219000
       698.479      0.440000      0.237000
       708.457      0.426000      0.255000
       718.725      0.411000      0.275000
       729.294      0.397000      0.296000
       737.976      0.386000      0.314000
       742.395      0.379000      0.323000
       746.867      0.374000      0.333000
       751.394      0.369000      0.342000
       762.954      0.357000      0.367000
       774.875      0.345000      0.394000
       787.175      0.333000      0.421000
       799.871      0.323000      0.450000
       812.984      0.313000      0.479000
       826.533      0.304000      0.510000
       840.542      0.296000      0.541000
       855.034      0.288000      0.573000
       870.035      0.281000      0.607000
       885.571      0.275000      0.641000
       901.673      0.269000      0.677000
       918.370      0.265000      0.714000
       935.698      0.261000      0.752000
       953.692      0.258000      0.792000
       972.392      0.256000      0.833000
       991.840      0.255000      0.875000
       1012.08      0.256000      0.918000
       1033.17      0.257000      0.963000
       1055.15      0.259000       1.01000
       1078.09      0.263000       1.06000
       1102.04      0.267000       1.11000
       1127.09      0.272000       1.16000
       1153.30      0.278000       1.21000
       1180.76      0.286000       1.26000
       1209.56      0.295000       1.32000
       1239.80      0.306000       1.38000
       1271.59      0.318000       1.45000
       1305.05      0.332000       1.51000
       1340.32      0.348000       1.58000
       1377.56      0.367000       1.66000
       1416.91      0.389000       1.73000
       1458.59      0.414000       1.82000
       1502.79      0.444000       1.90000
       1549.75      0.478000       2.00000
       1599.74      0.517000       2.10000
       1653.07      0.563000       2.21000
       1710.07      0.618000       2.32000
       1771.14      0.682000       2.45000
       1836.74      0.756000       2.58000
       1907.38      0.847000       2.73000
       1983.68      0.968000       2.89000
       2066.33       1.01000       2.90900
       2073.24       1.03600       2.92800
       2080.20       1.04600       2.94400
       2087.21       1.06600       2.93700
       2094.26       1.07000       2.96300
       2101.36       1.08300       2.98200
       2108.50       1.08800       2.98700
       2115.70       1.10200       3.00500
       2122.95       1.10900       3.01500
       2130.24       1.11900       3.02500
       2137.59       1.13300       3.04500
       2144.98       1.13900       3.06100
       2152.43       1.15500       3.07300
       2159.93       1.16400       3.08600
       2167.48       1.17500       3.10200
       2175.09       1.18000       3.11200
       2182.75       1.19500       3.13500
       2190.46       1.21100       3.15000
       2198.23       1.22200       3.16900
       2206.05       1.23500       3.19000
       2213.93       1.24700       3.20600
       2221.86       1.26500       3.22800
       2229.86       1.28000       3.24500
       2237.91       1.29900       3.26700
       2246.01       1.31900       3.28500
       2254.18       1.34000       3.30200
       2262.41       1.36200       3.31900
       2270.70       1.38900       3.33400
       2279.04       1.41600       3.35000
       2287.45       1.44500       3.35900
       2295.93       1.47100       3.36600
       2304.46       1.50200       3.36800
       2313.06       1.52600       3.36800
       2321.72       1.54800       3.36400
       2330.45       1.56600       3.35800
       2339.25       1.57900       3.35300
       2348.11       1.58500       3.34600
       2357.03       1.59000       3.34400
       2366.03       1.59100       3.34400
       2375.10       1.59200       3.34700
       2384.23       1.58900       3.35400
       2393.44       1.58600       3.36300
       2402.71       1.58200       3.37600
       2412.06       1.57900       3.38900
       2421.48       1.57300       3.40800
       2430.98       1.57100       3.42900
       2440.55       1.57000       3.45100
       2450.20       1.56900       3.47700
       2459.92       1.56800       3.50400
       2469.72       1.56900       3.53300
       2479.60       1.57000       3.56500
       2489.56       1.57500       3.59800
       2499.60       1.58000       3.63200
       2509.72       1.58400       3.67000
       2519.92       1.59100       3.70900
       2530.20       1.59700       3.74900
       2540.57       1.60800       3.78900
       2551.03       1.61800       3.83500
       2561.57       1.62900       3.88000
       2572.20       1.64300       3.92800
       2582.92       1.65800       3.97900
       2593.72       1.67300       4.03100
       2604.62       1.69200       4.08800
       2615.61       1.71300       4.14900
       2626.70       1.73700       4.21100
       2637.87       1.76400       4.27800
       2649.15       1.79400       4.35000
       2660.52       1.83100       4.42600
       2671.98       1.87400       4.50600
       2683.55       1.92700       4.59000
       2695.22       1.98800       4.67800
       2706.99       2.05900       4.76400
       2718.86       2.14000       4.84900
       2730.84       2.23400       4.93300
       2742.92       2.33900       5.01100
       2755.11       2.45100       5.08200
       2767.41       2.57200       5.14800
       2779.82       2.70000       5.20600
       2792.34       2.83300       5.25700
       2804.98       2.97400       5.30400
       2817.73       3.12000       5.34400
       2830.59       3.27700       5.38100
       2843.58       3.44400       5.41400
       2856.68       3.63400       5.43500
       2869.91       3.84900       5.43900
       2883.26       4.08600       5.39500
       2896.73       4.31800       5.30100
       2910.33       4.52500       5.15800
       2924.06       4.68600       4.98900
       2937.91       4.80500       4.81200
       2951.90       4.88800       4.63900
       2966.03       4.94100       4.48000
       2980.29       4.97700       4.33500
       2994.69       4.99900       4.20400
       3009.22       5.01200       4.08600
       3023.90       5.02000       3.97900
       3038.73       5.02100       3.88500
       3053.69       5.02000       3.79800
       3068.81       5.01800       3.72000
       3084.08       5.01500       3.65000
       3099.50       5.01000       3.58700
       3115.08       5.00900       3.52900
       3130.81       5.01000       3.47700
       3146.70       5.00900       3.42900
       3162.76       5.01200       3.38600
       3178.97       5.01600       3.34600
       3195.36       5.02100       3.31000
       3211.92       5.02900       3.27500
       3228.65       5.04000       3.24200
       3245.55       5.05200       3.21100
       3262.63       5.06500       3.18200
       3279.89       5.07900       3.15400
       3297.34       5.09500       3.12800
       3314.97       5.11500       3.10300
       3332.80       5.13400       3.07900
       3350.81       5.15600       3.05800
       3369.02       5.17900       3.03900
       3387.43       5.20400       3.02100
       3406.04       5.23100       3.00700
       3424.86       5.26100       2.99500
       3443.89       5.29600       2.98700
       3463.13       5.33600       2.98300
       3482.58       5.38300       2.98400
       3502.26       5.44200       2.98900
       3522.16       5.51500       2.99900
       3542.29       5.61000       3.01400
       3562.64       5.73300       3.02600
       3583.24       5.89400       3.02300
       3604.07       6.08900       2.98200
       3625.15       6.30800       2.88100
       3646.47       6.52200       2.70500
       3668.05       6.69500       2.45600
       3689.88       6.79600       2.16900
       3711.98       6.82900       1.87000
       3734.34       6.79900       1.57700
       3756.97       6.70900       1.32100
       3779.88       6.58500       1.11000
       3803.07       6.45200      0.945000
       3826.54       6.31600      0.815000
       3850.31       6.18500      0.714000
       3874.38       6.06200      0.630000
       3898.74       5.94800      0.561000
       3923.42       5.84200      0.505000
       3948.41       5.74400      0.456000
       3973.72       5.65400      0.416000
       3999.35       5.57000      0.387000
       4025.32       5.49300      0.355000
       4051.63       5.42000      0.329000
       4078.29       5.34900      0.313000
       4105.30       5.28400      0.291000
       4132.67       5.22200      0.269000
       4160.40       5.16400      0.255000
       4188.51       5.10900      0.244000
       4217.01       5.05800      0.228000
       4245.89       5.00900      0.211000
       4275.17       4.96100      0.203000
       4304.86       4.91600      0.194000
       4334.97       4.87200      0.185000
       4365.49       4.83100      0.185000
       4396.45       4.79100      0.170000
       4427.86       4.75300      0.163000
       4459.71       4.71800      0.149000
       4492.03       4.68200      0.149000
       4524.82       4.64800      0.133000
       4558.09       4.61500      0.131000
       4591.85       4.58300      0.130000
       4626.12       4.55300      0.131000
       4660.90       4.52200      0.134000
       4696.21       4.49500      0.120000
       4732.06       4.46600      0.120000
       4768.46       4.44200     0.0900000
       4805.43       4.41600     0.0940000
       4842.97       4.39100     0.0830000
       4881.10       4.36700     0.0790000
       4919.84       4.34300     0.0770000
       4959.20       4.32000     0.0730000
       4999.19       4.29800     0.0730000
       5039.84       4.27700     0.0660000
       5081.15       4.25500     0.0720000
       5123.14       4.23500     0.0600000
       5165.83       4.21500     0.0600000
       5209.24       4.19600     0.0560000
       5253.39       4.17700     0.0530000
       5298.29       4.15900     0.0430000
       5343.97       4.14000     0.0450000
       5390.44       4.12300     0.0480000
       5437.72       4.10600     0.0440000
       5485.84       4.08900     0.0440000
       5534.82       4.07300     0.0320000
       5584.68       4.05700     0.0380000
       5635.45       4.04200     0.0320000
       5687.16       4.02600     0.0340000
       5739.81       4.01200     0.0300000
       5793.46       3.99700     0.0270000
       5848.11       3.98300     0.0300000
       5903.81       3.96900     0.0300000
       5960.58       3.95600     0.0270000
       6018.45       3.94300     0.0250000
       6077.45       3.93100     0.0250000
       6137.62       3.91800     0.0240000
       6199.00       3.90600     0.0220000
       6261.62       3.89300     0.0220000
       6325.51       3.88200     0.0190000
       6390.72       3.87000     0.0180000
       6457.29       3.85800     0.0170000
       6525.26       3.84700     0.0160000
       6594.68       3.83700     0.0160000
       6665.59       3.82600     0.0150000
       6738.04       3.81500     0.0140000
       6812.09       3.80500     0.0130000
       6887.78       3.79600     0.0130000
       6965.17       3.78700     0.0130000
       7044.32       3.77800     0.0120000
       7125.29       3.76800     0.0110000
       7208.14       3.76100     0.0110000
       7292.94       3.75200     0.0100000
       7379.76       3.74500     0.0100000
       7468.67       3.73600    0.00900000
       7559.76       3.72800    0.00900000
       7653.09       3.72100    0.00800000
       7748.75       3.71400    0.00800000
       7846.84       3.70500    0.00700000
       7947.44       3.69700    0.00700000
       8050.65       3.68800    0.00600000
       8156.58       3.68100    0.00600000
       8265.33       3.67300    0.00500000
       11199.6       3.53610       0.00000
       11437.3       3.52950       0.00000
       12001.9       3.51930       0.00000
       13719.2       3.50070       0.00000
       13999.5       3.48760       0.00000
       15319.4       3.47840       0.00000
       15999.5       3.47100       0.00000
       16960.3       3.46440       0.00000
       17999.4       3.45780       0.00000
       20000.0       3.44900       0.00000
       24371.9       3.44340       0.00000
       25001.0       3.44240       0.00000
       27141.0       3.43930   2.50000e-09
       29997.6       3.43610       0.00000
       33034.9       3.43350       0.00000
       34191.9       3.43270       0.00000
       35002.8       3.43210       0.00000
       39993.5       3.42940       0.00000
       49991.9       3.42610   1.99000e-07
       60009.7       3.42420       0.00000
       70005.6       3.42310       0.00000
       79987.1       3.42240   1.53000e-05
       89971.0       3.42190       0.00000
       99983.9       3.42150   6.76000e-05
       134996.       3.42090       0.00000
       145006.       3.42080       0.00000
       150006.       3.42070       0.00000
       200000.       3.42040   0.000286000
       250010.       3.42010   9.15000e-05
       302981.       3.42000       0.00000
       499919.       3.41970       0.00000
       624899.       3.41950   0.000170000
       714170.       3.41920   0.000190000
       833199.       3.41900   0.000230000
       908944.       3.41880       0.00000
       999839.       3.41850   0.000290000
   1.24992e+06       3.41800   0.000430000
   1.66864e+06       3.41700   0.000720000
   2.00000e+06       3.41650    0.00100000
   2.50010e+06       3.41600    0.00140000
   3.33280e+06       3.41550       0.00000
