;  Optical constants for hexagonal SiC, ordinary ray
; 
;   taken from:
;
;   'Handbook of Optical Constants of Solids II', Ed. by Edward D. Palik,
;   Academic Press, Inc., 1991.
;   
;    Lambda (A)            n            k
;-----------------------------------------
       413.267      0.739000      0.114000
       426.048      0.718000      0.115000
       439.645      0.689000      0.123000
       449.203      0.670000      0.132000
       459.185      0.650000      0.143000
       469.621      0.630000      0.156000
       475.019      0.621000      0.163000
       486.196      0.601000      0.177000
       493.944      0.587000      0.186000
       506.041      0.562000      0.200000
       514.440      0.543000      0.209000
       527.574      0.505000      0.225000
       536.710      0.474000      0.243000
       551.022      0.424000      0.285000
       560.995      0.392000      0.326000
       576.651      0.360000      0.402000
       587.583      0.348000      0.481000
       604.781      0.347000      0.532000
       616.816      0.349000      0.581000
       635.795      0.359000      0.653000
       649.110      0.369000      0.699000
       670.162      0.387000      0.766000
       684.972      0.401000      0.810000
       708.457      0.424000      0.873000
       725.029      0.438000      0.915000
       751.394      0.461000      0.983000
       779.748      0.490000       1.05000
       799.871      0.512000       1.10000
       821.060      0.536000       1.15000
       855.034      0.574000       1.23000
       879.291      0.602000       1.28000
       918.370      0.649000       1.36000
       946.412      0.681000       1.41000
       991.840      0.729000       1.51000
       1024.63      0.769000       1.58000
       1078.09      0.844000       1.71000
       1116.94      0.909000       1.80000
       1132.24      0.937000       1.84000
       1147.96      0.969000       1.88000
       1164.13       1.00000       1.92000
       1186.41       1.05000       1.97000
       1209.56       1.11000       2.03000
       1233.63       1.18000       2.08000
       1252.32       1.23000       2.13000
       1278.14       1.33000       2.19000
       1305.05       1.46000       2.21000
       1333.12       1.56000       2.18000
       1377.56       1.60000       2.15000
       1408.86       1.61000       2.19000
       1441.63       1.63000       2.26000
       1475.95       1.66000       2.39000
       1511.95       1.77000       2.57000
       1549.75       1.99000       2.73000
       1589.49       2.27000       2.82000
       1631.32       2.59000       2.87000
       1653.07       2.78000       2.85000
       1686.80       3.04000       2.74000
       1733.99       3.33000       2.55000
       1771.14       3.51000       2.38000
       1823.24       3.69000       2.17000
       1878.48       3.97000       1.88000
       1937.19       4.05000       1.42000
       1999.68       3.96000       1.06000
       2066.33       3.83000      0.803000
       2137.59       3.68000      0.609000
       2213.93       3.54000      0.464000
       2295.93       3.39000      0.367000
       2384.23       3.27000      0.304000
       2479.60       3.16000      0.259000
       2755.11       2.96000      0.203000
       3099.50       2.85000      0.174000
       3178.97       2.92300    0.00765000
       3262.63       2.89900    0.00598000
       3350.81       2.87700    0.00493000
       3443.89       2.85600    0.00375000
       3542.29       2.83600    0.00289000
       3646.47       2.81700    0.00204000
       3756.97       2.79900    0.00138000
       3874.38       2.78100   0.000839000
       3999.35       2.76500   0.000191000
       4132.67       2.75000   4.44000e-05
       4357.82       2.73050       0.00000
       4669.68       2.70740       0.00000
       4959.20       2.68400   1.18000e-05
       4979.12       2.68700       0.00000
       5150.81       2.67890       0.00000
       5461.67       2.66310       0.00000
       5679.34       2.65570       0.00000
       5779.95       2.65110       0.00000
       5889.79       2.64880       0.00000
       5895.39       2.64750       0.00000
       6158.97       2.64110       0.00000
       6199.00       2.63400       0.00000
       6563.26       2.62960       0.00000
       6910.81       2.62430       0.00000
       8265.33       2.59800       0.00000
       12398.0       2.57300       0.00000
       20000.0       2.57200   0.000398000
       22222.6       2.56800       0.00000
       24796.0       2.55800       0.00000
       25001.0       2.56200   0.000517000
       28573.4       2.55400       0.00000
       30995.0       2.55600       0.00000
       33328.0       2.54000       0.00000
       39993.5       2.51600   0.000637000
       41326.7       2.55500       0.00000
       49991.9       2.46700   0.000875000
       52623.1       2.45000       0.00000
       55546.6       2.43000       0.00000
       58814.0       2.40400       0.00000
       62489.9       2.37200       0.00000
       66655.9       2.32800       0.00000
       71417.0       2.26700       0.00000
       76910.7       2.17800       0.00000
       83319.9       2.03400       0.00000
       90894.4       1.76800       0.00000
       92591.5       1.68400       0.00000
       94353.1       1.58100       0.00000
       96183.1       1.45300       0.00000
       98007.9       1.28600     0.0140000
       99983.9       1.05100     0.0340000
       101043.      0.888000     0.0450000
       102041.      0.663000     0.0670000
       103059.      0.274000      0.180000
       104185.     0.0872000      0.630000
       105246.     0.0663000      0.950000
       106421.     0.0593000       1.21000
       107528.     0.0569000       1.45000
       108659.     0.0569000       1.69000
       109911.     0.0587000       1.93000
       111093.     0.0621000       2.18000
       112403.     0.0672000       2.45000
       113639.     0.0746000       2.75000
       114903.     0.0850000       3.08000
       116304.     0.0999000       3.47000
       117628.      0.122000       3.93000
       119097.      0.156000       4.51000
       120486.      0.215000       5.27000
       121193.      0.262000       5.77000
       121908.      0.332000       6.38000
       122752.      0.443000       7.18000
       123486.      0.639000       8.27000
       124216.       1.05000       9.93000
       124992.       2.22000       12.8000
       125779.       8.74000       18.4000
       126575.       17.7000       6.03000
       127381.       12.7000       1.76000
       128198.       10.3000      0.868000
       129025.       8.91000      0.531000
       129863.       8.00000      0.364000
       130712.       7.35000      0.268000
       131572.       6.86000      0.208000
       133326.       6.16000      0.136000
       135128.       5.68000     0.0970000
       136979.       5.32000     0.0740000
       138882.       5.05000     0.0580000
       140838.       4.83000     0.0470000
       142851.       4.65000     0.0390000
       153840.       4.09000     0.0180000
       166662.       3.80000     0.0110000
       181816.       3.61000       0.00000
       200000.       3.49000       0.00000
       222226.       3.40000       0.00000
       250010.       3.34000       0.00000
