;  Optical constants for SiO
; 
;   taken from:
;
;   'Handbook of Optical Constants of Solids', Ed. by Edward D. Palik,
;   Academic Press, Inc., 1985.
;   
;    Lambda (A)            n            k
;-----------------------------------------
       495.920      0.869000      0.271700
       516.583      0.844400      0.306000
       539.043      0.837100      0.350500
       551.022      0.839100      0.376100
       563.545      0.845400      0.398700
       576.651      0.851900      0.422200
       590.381      0.861000      0.445600
       604.781      0.872100      0.468800
       619.900      0.885300      0.491900
       635.795      0.900700      0.514000
       652.526      0.917800      0.536200
       670.162      0.937600      0.557800
       688.778      0.959600      0.577100
       708.457      0.982500      0.596100
       729.294       1.00800      0.614700
       751.394       1.03600      0.630900
       774.875       1.06600      0.645300
       799.871       1.09800      0.656600
       826.533       1.13200      0.665100
       855.034       1.16600      0.669200
       885.571       1.19900      0.669800
       918.370       1.23100      0.666600
       953.692       1.25900      0.660200
       991.840       1.28300      0.652300
       1033.17       1.30700      0.646400
       1078.09       1.31100      0.629300
       1127.09       1.32000      0.652900
       1180.76       1.34500      0.670100
       1239.80       1.37800      0.684300
       1305.05       1.41200      0.692000
       1377.56       1.44500      0.700200
       1458.59       1.48200      0.715300
       1549.75       1.53000      0.733300
       1653.07       1.59300      0.747300
       1771.14       1.66700      0.747900
       1907.38       1.74600      0.734800
       2066.33       1.82900      0.708400
       2156.17       1.87100      0.689000
       2254.18       1.91400      0.666300
       2361.52       1.95700      0.638300
       2479.60       2.00100      0.605200
       2582.92       2.03400      0.572300
       2695.22       2.06600      0.536400
       2817.73       2.09400      0.494800
       2951.90       2.11900      0.449900
       3099.50       2.14100      0.400600
       3262.63       2.15700      0.345300
       3443.89       2.16200      0.287200
       3646.47       2.16000      0.228700
       3874.38       2.14400      0.170600
       4132.67       2.11600      0.121100
       4427.86       2.08500     0.0837400
       4768.46       2.05300     0.0554400
       5165.83       2.02100     0.0353300
       5635.45       1.99400     0.0215300
       6199.00       1.96900     0.0117500
       6887.78       1.94800    0.00523000
       7748.75       1.92900    0.00151000
       8855.71       1.91300       0.00000
       9998.39       1.87000       0.00000
       20000.0       1.84000       0.00000
       29997.6       1.82000       0.00000
       39993.5       1.80000       0.00000
       49991.9       1.75000       0.00000
       60009.7       1.70000       0.00000
       70005.6       1.60000       0.00000
       75003.0       1.42000       0.00000
       79987.1       1.15000       0.00000
       84976.0      0.900000      0.180000
       89971.0      0.910000      0.750000
       95003.8       1.20000       1.20000
       99983.9       2.00000       1.38000
       104979.       2.85000      0.900000
       107528.       2.86000      0.580000
       110009.       2.82000      0.400000
       115009.       2.50000      0.200000
       120019.       2.13000      0.140000
       129999.       2.04000      0.200000
       139995.       2.01000      0.300000
