;  Optical constants for Ta
; 
;   taken from:
;
;   'Handbook of Optical Constants of Solids II', Ed. by Edward D. Palik,
;   Academic Press, Inc., 1991.
;   
;    Lambda (A)            n            k
;-----------------------------------------
       1.23980      0.999977   1.49000e-06
       1.26873      0.999975   1.62000e-06
       1.29836      0.999973   1.75000e-06
       1.35988      0.999970   2.07000e-06
       1.42408      0.999966   2.44000e-06
       1.49140      0.999963   2.88000e-06
       1.56205      0.999959   3.39000e-06
       1.63584      0.999955   4.00000e-06
       1.71314      0.999950   4.72000e-06
       1.79421      0.999945   5.56000e-06
       1.87905      0.999940   6.55000e-06
       1.96794      0.999934   7.72000e-06
       2.06118      0.999927   9.10000e-06
       2.15843      0.999920   1.07000e-05
       2.26076      0.999912   1.26000e-05
       2.36739      0.999903   1.48000e-05
       2.47960      0.999894   1.75000e-05
       2.59644      0.999884   2.06000e-05
       2.71946      0.999873   2.42000e-05
       2.84815      0.999861   2.84000e-05
       2.98244      0.999847   3.34000e-05
       3.12371      0.999833   3.92000e-05
       3.27124      0.999818   4.60000e-05
       3.42581      0.999801   5.40000e-05
       3.58842      0.999784   6.33000e-05
       3.75811      0.999765   7.42000e-05
       3.93587      0.999745   8.69000e-05
       4.12168      0.999725   0.000102000
       4.31685      0.999704   0.000119000
       4.41682      0.999694   0.000128000
       4.52152      0.999685   0.000139000
       4.62612      0.999673   0.000144000
       4.73387      0.999661   0.000156000
       4.84486      0.999650   0.000170000
       4.95920      0.999644   0.000184000
       5.07491      0.999634   0.000187000
       5.19397      0.999619   0.000203000
       5.43772      0.999601   0.000240000
       5.56463      0.999602   0.000260000
       5.69499      0.999603   0.000242000
       5.82887      0.999577   0.000262000
       5.96631      0.999563   0.000284000
       6.24584      0.999552   0.000332000
       6.54248      0.999569   0.000390000
       6.69438      0.999604   0.000422000
       6.85351      0.999696   0.000421000
       7.01244      0.999757   0.000320000
       7.17477      0.999723   0.000114000
       7.34479      0.999592   0.000123000
       7.51394      0.999516   0.000132000
       7.87175      0.999405   0.000153000
       8.24335      0.999307   0.000178000
       8.63371      0.999212   0.000205000
       9.04303      0.999114   0.000237000
       9.47135      0.999012   0.000274000
       9.91840      0.998900   0.000316000
       10.3836      0.998790   0.000364000
       10.8754      0.998670   0.000419000
       11.3952      0.998540   0.000482000
       11.9326      0.998400   0.000554000
       12.4942      0.998250   0.000636000
       13.0850      0.998090   0.000728000
       13.7040      0.997920   0.000831000
       14.3512      0.997740   0.000948000
       15.0297      0.997560    0.00108000
       15.7395      0.997360    0.00123000
       16.4845      0.997150    0.00139000
       17.2650      0.996930    0.00158000
       18.0808      0.996710    0.00178000
       18.9369      0.996460    0.00201000
       19.8336      0.996230    0.00227000
       20.7706      0.996000    0.00256000
       21.2549      0.995910    0.00271000
       21.7509      0.995830    0.00284000
       22.2585      0.995710    0.00290000
       22.7821      0.995510    0.00303000
       23.8561      0.995210    0.00338000
       24.9859      0.994910    0.00374000
       26.1672      0.994620    0.00414000
       26.7775      0.994490    0.00435000
       27.4050      0.994380    0.00456000
       28.0434      0.994270    0.00473000
       28.6991      0.994130    0.00489000
       30.0558      0.993790    0.00522000
       30.7643      0.993590    0.00539000
       31.4830      0.993340    0.00559000
       32.2193      0.993090    0.00583000
       32.9646      0.992860    0.00609000
       34.5252      0.992380    0.00665000
       36.1563      0.991910    0.00726000
       37.8681      0.991420    0.00793000
       39.6609      0.990920    0.00866000
       41.5343      0.990440    0.00946000
       43.5018      0.990000     0.0103000
       45.5641      0.989700     0.0112000
       47.7030      0.989300     0.0119000
       49.9718      0.988800     0.0127000
       51.1258      0.988500     0.0131000
       52.3343      0.988200     0.0136000
       53.5551      0.987900     0.0140000
       54.8099      0.987600     0.0145000
       56.0742      0.987300     0.0150000
       57.3981      0.987000     0.0154000
       60.1261      0.986500     0.0164000
       62.9660      0.985800     0.0173000
       65.9468      0.985200     0.0182000
       69.0312      0.984300     0.0190000
       72.3337      0.983200     0.0199000
       75.7361      0.982000     0.0210000
       79.3218      0.980700     0.0221000
       83.0409      0.979300     0.0232000
       87.0035      0.977700     0.0245000
       91.0948      0.976000     0.0257000
       95.4426      0.974000     0.0270000
       99.9033      0.971900     0.0282000
       104.624      0.969300     0.0292000
       109.620      0.966000     0.0303000
       114.796      0.962100     0.0319000
       120.252      0.957900     0.0336000
       125.906      0.952400     0.0355000
       131.852      0.946200     0.0389000
       138.093      0.939800     0.0427000
       144.617      0.932900     0.0471000
       151.472      0.925000     0.0520000
       158.623      0.915100     0.0582000
       166.126      0.904700     0.0671000
       173.983      0.893700     0.0777000
       182.216      0.881400     0.0922000
       190.827      0.871400      0.110000
       199.839      0.862300      0.131000
       209.284      0.854600      0.156000
       219.201      0.850800      0.188000
       229.550      0.856700      0.225000
       240.411      0.874400      0.256000
       309.950      0.950000      0.290000
       313.873      0.960000      0.290000
       317.897      0.970000      0.290000
       322.026      0.970000      0.290000
       326.263      0.980000      0.280000
       330.613      0.980000      0.280000
       335.081      0.990000      0.280000
       339.671      0.990000      0.270000
       344.389      0.990000      0.270000
       349.239      0.990000      0.270000
       354.229      0.990000      0.260000
       359.362      0.990000      0.260000
       364.647      0.990000      0.250000
       370.090      0.980000      0.250000
       375.697      0.980000      0.250000
       381.477      0.980000      0.240000
       387.438      0.980000      0.240000
       393.587      0.970000      0.240000
       399.935      0.970000      0.230000
       406.492      0.960000      0.230000
       413.267      0.950000      0.220000
       416.040      0.950000      0.220000
       418.851      0.940000      0.220000
       421.701      0.940000      0.220000
       424.589      0.930000      0.220000
       427.517      0.920000      0.220000
       430.486      0.920000      0.220000
       433.496      0.910000      0.220000
       436.549      0.910000      0.220000
       439.645      0.900000      0.220000
       442.786      0.900000      0.230000
       445.971      0.890000      0.230000
       449.203      0.890000      0.230000
       452.482      0.880000      0.240000
       455.809      0.880000      0.240000
       459.185      0.870000      0.250000
       462.612      0.870000      0.250000
       466.090      0.870000      0.260000
       469.621      0.870000      0.260000
       473.206      0.880000      0.260000
       476.846      0.880000      0.250000
       480.543      0.870000      0.250000
       484.297      0.860000      0.240000
       488.110      0.850000      0.240000
       491.984      0.840000      0.250000
       495.920      0.830000      0.250000
       499.919      0.830000      0.250000
       503.984      0.820000      0.250000
       508.115      0.810000      0.250000
       512.314      0.800000      0.260000
       516.583      0.800000      0.260000
       518.745      0.790000      0.270000
       520.924      0.800000      0.270000
       523.122      0.800000      0.270000
       525.339      0.800000      0.260000
       527.574      0.790000      0.250000
       529.829      0.790000      0.250000
       534.397      0.760000      0.240000
       539.043      0.730000      0.240000
       543.772      0.710000      0.260000
       548.584      0.690000      0.270000
       553.482      0.680000      0.290000
       558.468      0.660000      0.300000
       563.545      0.640000      0.320000
       568.716      0.640000      0.340000
       573.981      0.640000      0.340000
       579.346      0.610000      0.350000
       584.811      0.590000      0.370000
       590.381      0.570000      0.390000
       596.058      0.560000      0.420000
       601.845      0.550000      0.440000
       607.745      0.550000      0.470000
       613.762      0.540000      0.500000
       619.900      0.540000      0.520000
       626.162      0.530000      0.550000
       632.551      0.530000      0.570000
       639.072      0.530000      0.600000
       645.729      0.520000      0.630000
       652.526      0.530000      0.650000
       659.468      0.530000      0.680000
       666.559      0.530000      0.710000
       673.804      0.540000      0.730000
       681.209      0.540000      0.760000
       688.778      0.550000      0.790000
       696.517      0.560000      0.810000
       704.432      0.560000      0.840000
       712.529      0.570000      0.870000
       720.814      0.580000      0.890000
       729.294      0.600000      0.920000
       737.976      0.610000      0.940000
       746.867      0.630000      0.970000
       755.976      0.640000      0.990000
       765.309      0.660000       1.02000
       774.875      0.680000       1.04000
       784.684      0.700000       1.06000
       794.744      0.720000       1.08000
       805.065      0.750000       1.10000
       815.658      0.770000       1.12000
       826.533      0.800000       1.13000
       837.703      0.820000       1.14000
       849.178      0.850000       1.15000
       860.972      0.870000       1.15000
       873.099      0.890000       1.15000
       885.571      0.900000       1.15000
       898.406      0.910000       1.16000
       911.618      0.910000       1.16000
       925.224      0.910000       1.18000
       939.242      0.920000       1.20000
       953.692      0.930000       1.22000
       968.594      0.940000       1.24000
       983.968      0.960000       1.26000
       999.839      0.980000       1.28000
       1016.23       1.00000       1.29000
       1033.17       1.02000       1.31000
       1050.68       1.05000       1.32000
       1068.79       1.07000       1.33000
       1087.54       1.09000       1.34000
       1106.96       1.11000       1.35000
       1127.09       1.13000       1.35000
       1147.96       1.15000       1.36000
       1169.62       1.16000       1.36000
       1192.12       1.18000       1.37000
       1215.49       1.19000       1.37000
       1239.80       1.20000       1.37000
       1265.10       1.21000       1.37000
       1291.46       1.21000       1.38000
       1318.94       1.21000       1.38000
       1347.61       1.21000       1.38000
       1377.56       1.19000       1.40000
       1408.86       1.17000       1.41000
       1441.63       1.14000       1.45000
       1475.95       1.13000       1.50000
       1511.95       1.12000       1.55000
       1549.75       1.11000       1.61000
       1589.49       1.11000       1.68000
       1631.32       1.12000       1.75000
       1675.41       1.13000       1.82000
       1721.94       1.15000       1.91000
       1771.14       1.18000       2.01000
       1823.24       1.23000       2.11000
       1878.48       1.29000       2.22000
       1937.19       1.37000       2.33000
       1999.68       1.48000       2.45000
       2066.33       1.63000       2.56000
       2137.59       1.83000       2.63000
       2213.93       2.06000       2.67000
       2295.93       2.31000       2.61000
       2384.23       2.52000       2.44000
       2479.60       2.58000       2.20000
       2582.92       2.53000       2.06000
       2695.22       2.45000       2.06000
       2817.73       2.39000       2.01000
       2951.90       2.35000       2.06000
       3099.50       2.36000       2.14000
       3262.63       2.40000       2.22000
       3443.89       2.49000       2.30000
       3646.47       2.61000       2.33000
       3874.38       2.73000       2.31000
       4132.67       2.81000       2.24000
       4275.17       2.84000       2.20000
       4427.86       2.85000       2.14000
       4591.85       2.84000       2.08000
       4768.46       2.80000       2.02000
       4959.20       2.75000       1.98000
       5165.83       2.68000       1.92000
       5390.44       2.56000       1.86000
       5635.45       2.36000       1.81000
       5903.81       2.10000       1.84000
       6199.00       1.83000       1.99000
       6525.26       1.57000       2.24000
       6887.78       1.35000       2.60000
       7292.94       1.24000       2.95000
       7748.75       1.15000       3.33000
       8265.33       1.09000       3.73000
       8855.71       1.04000       4.15000
       9536.92       1.00000       4.62000
       10331.7      0.980000       5.14000
       11270.9      0.930000       5.75000
       12398.0      0.890000       6.47000
       12651.0      0.880000       6.64000
       13189.4      0.860000       6.99000
       13775.6      0.840000       7.38000
       14416.3      0.850000       7.81000
       15119.5      0.860000       8.27000
       15894.9      0.890000       8.77000
       16754.1      0.920000       9.32000
       17711.4      0.960000       9.92000
       18784.8       1.00000       10.6000
       19996.8       1.06000       11.4000
       21375.9       1.15000       12.2000
       22959.3       1.25000       13.1000
       24796.0       1.37000       14.3000
       26952.2       1.54000       15.6000
       29519.0       1.75000       17.1000
       32626.3       2.03000       18.9000
       36464.7       2.40000       21.1000
       41326.7       2.87000       23.9000
       44278.6       3.23000       25.6000
       47684.6       3.67000       27.5000
       51658.3       4.20000       29.8000
       56354.5       4.88000       32.4000
       61990.0       5.77000       35.5000
       65252.6       6.29000       37.2000
       68877.8       6.91000       39.2000
       77487.5       8.45000       43.7000
       82653.3       9.45000       46.4000
       88557.1       10.6000       49.4000
       95369.2       12.1000       52.9000
       103317.       14.0000       56.8000
       111093.       15.6000       54.6000
       124992.       19.1000       59.9000
       142851.       24.2000       66.4000
       166662.       31.5000       73.9000
       200000.       41.7000       82.8000
       222226.       48.4000       93.1000
       250010.       56.4000       98.9000
       285734.       66.1000       105.000
       333280.       77.9000       111.000
       399936.       92.0000       119.000
       444373.       100.000       127.000
       499919.       109.000       137.000
       571336.       119.000       143.000
       666559.       131.000       151.000
       799871.       146.000       162.000
       999839.       164.000       178.000
   1.24992e+06       184.000       197.000
