;  Optical constants for evaporated Ta
; 
;   taken from:
;
;   D. L. Windt, Webster C. Cash, Jr., M. Scott, P. Arendt, B. Newnam,
;   R. F. Fisher, and A. B. Swartzlander, 'Optical Constants for thin films
;   of Ti, Zr, Nb, Mo, Ru, Rh, Pd, Ag, Hf, Ta, W, Re, Ir, Os, Pt, and Au
;   from 24 to 1216 A', App. Opt., 27, 246, 1988.
;   
;    Lambda (A)            n            k
;-----------------------------------------
   23.620      .99639	.00211
   31.600      .99530	.00326
   44.700      .99054	.00951
   67.600      .9815	.0149	
   114.00      .9613	.0288
   135.50      .9436	.0331
   171.40      .886	.0694
   243.03      .861	.220
   256.32      .868	.250
   303.78      .892	.256
   327.00      .964	.318
   356.80      .922	.259
   379.31      .903	.259
   405.85      .854	.209
   447.81      .830	.240
   460.73      .812	.279
   489.50      .811	.305
   539.09      .768	.310
   584.33      .730	.406
   616.29      .790	.610
   671.39      .762	.607
   718.48      .79	.716
   735.90      .83	.75	
   743.72      .78	.721	
   834.46      .851	.853	
   878.00      .917	.953	
   919.78      .977	1.04
   932.05      .971	1.05
   988.78      .996	1.076
   1025.8      1.054	1.131
   1048.2      1.087	1.153
   1066.7      1.059	1.126
   1085.7      1.245	1.199
   1135.0      1.29	1.17
   1200.7      1.39	1.2	
   1215.7      1.232	1.171	
