;  Optical constants for trigonal Te, extraordinary ray
; 
;   taken from:
;
;   'Handbook of Optical Constants of Solids II', Ed. by Edward D. Palik,
;   Academic Press, Inc., 1991.
;   
;    Lambda (A)            n            k
;-----------------------------------------
       413.267      0.900000     0.0450000
       427.517      0.900000     0.0670000
       442.786      0.890000     0.0900000
       459.185      0.880000      0.100000
       476.846      0.870000      0.120000
       495.920      0.860000      0.140000
       516.583      0.850000      0.150000
       539.043      0.840000      0.160000
       563.545      0.830000      0.180000
       590.381      0.820000      0.180000
       619.900      0.740000      0.200000
       652.526      0.490000      0.300000
       688.778      0.480000      0.310000
       729.294      0.510000      0.390000
       774.875      0.590000      0.490000
       826.533      0.640000      0.550000
       855.034      0.650000      0.570000
       885.571      0.670000      0.590000
       918.370      0.710000      0.640000
       953.692      0.730000      0.690000
       991.840      0.750000      0.720000
       1033.17      0.790000      0.760000
       1078.09      0.790000      0.750000
       1127.09      0.800000      0.770000
       1180.76      0.830000      0.800000
       1239.80      0.860000      0.860000
       1305.05      0.840000      0.950000
       1377.56      0.990000      0.930000
       1416.91       1.59000       1.23000
       1458.59       1.55000       1.23000
       1502.79       1.54000       1.30000
       1549.75       1.54000       1.37000
       1599.74       1.60000       1.47000
       1653.07       1.72000       1.51000
       1710.07       1.81000       1.44000
       1771.14       1.83000       1.36000
       1836.74       1.79000       1.34000
       1907.38       1.78000       1.36000
       1983.68       1.73000       1.41000
       2066.33       1.73000       1.45000
       2156.17       1.72000       1.51000
       2254.18       1.72000       1.57000
       2361.52       1.71000       1.58000
       2479.60       1.63000       1.60000
       2610.11       1.49000       1.71000
       2755.11       1.32000       1.96000
       2917.18       1.25000       2.31000
       3099.50       1.33000       2.64000
       3306.13       1.44000       3.06000
       3542.29       1.69000       3.44000
       3814.77       1.92000       3.78000
       4039.75       2.22000       3.96000
       4132.67       2.30000       4.16000
       4165.99       2.35000       4.15000
       4300.38       2.54000       4.27000
       4427.86       2.73000       4.42000
       4443.73       2.76000       4.39000
       4596.96       2.98000       4.52000
       4761.14       3.21000       4.71000
       4768.46       3.25000       4.77000
       4892.66       3.46000       4.85000
       4985.12       3.63000       4.93000
       5079.07       3.81000       5.01000
       5165.83       3.94000       5.08000
       5178.78       3.99000       5.08000
       5280.24       4.20000       5.16000
       5388.09       4.39000       5.20000
       5498.00       4.65000       5.21000
       5612.49       4.91000       5.20000
       5635.45       4.94000       5.16000
       5734.51       5.17000       5.16000
       5992.27       5.76000       4.92000
       6128.52       6.00000       4.77000
       6199.00       4.67000       4.67000
       6274.29       6.21000       4.60000
       6423.83       6.40000       4.36000
       6584.17       6.58000       4.10000
       6749.05       6.77000       3.86000
       6887.78       6.89000       3.70000
       6926.26       6.85000       3.65000
       7108.95       6.86000       3.47000
       7305.83       6.80000       3.18000
       7509.39       6.78000       3.03000
       7729.43       6.74000       2.93000
       7748.75       6.75000       2.91000
       7962.75       6.73000       2.89000
       8205.16       6.81000       2.86000
       8468.58       6.95000       2.80000
       8743.30       7.14000       2.56000
       8855.71       7.11000       2.46000
       9536.92       6.87000       2.16000
       10331.7       6.99000       2.22000
       11270.9       7.51000       2.10000
       12398.0       7.70000       1.56000
       13775.6       7.48000      0.940000
       15497.5       7.23000      0.480000
       17711.4       7.00000      0.240000
       20663.3       6.71000     0.0750000
       24796.0       6.53000     0.0230000
       39993.5       6.37200   1.18000e-05
       49991.9       6.31600   7.48000e-05
       60009.7       6.28600       0.00000
       70005.6       6.25700       0.00000
       79987.1       6.25300       0.00000
       99983.9       6.24600   0.000334000
       120019.       6.23700       0.00000
       133326.       5.99000       0.00000
       139995.       6.23000       0.00000
       200000.       5.98000   0.000309000
       250010.       5.97000   0.000736000
       285734.       5.96000    0.00159000
       333280.       5.94000    0.00371000
       399936.       5.91000    0.00138000
       499919.       5.85000    0.00321000
       666559.       5.71000    0.00954000
       714170.       5.59000     0.0174000
       769107.       5.47000     0.0278000
       833199.       5.26000     0.0505000
       908944.       4.82000      0.118000
       930082.       4.63000      0.156000
       952227.       4.38000      0.218000
       975452.       4.01000      0.326000
       999839.       3.46000      0.552000
   1.02041e+06       2.77000      0.986000
   1.04185e+06       2.00000       2.11000
   1.06421e+06       1.88000       3.88000
   1.08659e+06       2.51000       6.00000
   1.11093e+06       4.75000       8.66000
   1.13535e+06       10.5000       8.62000
   1.13639e+06       10.8000       8.38000
   1.16304e+06       11.7000       3.20000
   1.19097e+06       10.3000       1.37000
   1.21908e+06       9.30000      0.744000
   1.26265e+06       8.69000      0.466000
   1.28198e+06       8.28000      0.319000
   1.31572e+06       7.98000      0.232000
   1.35128e+06       7.76000      0.176000
   1.38882e+06       7.58000      0.138000
   1.42851e+06       7.44000      0.112000
   1.66662e+06       7.03000     0.0481000
   2.00000e+06       6.83000     0.0258000
   2.50010e+06       6.71000     0.0153000
   3.33280e+06       6.64000    0.00938000
   4.99919e+06       6.60000    0.00547000
   9.99839e+06       6.58000    0.00253000
