;  Optical constants for tetragonal TiO2, extraordinary ray
; 
;   taken from:
;
;   'Handbook of Optical Constants of Solids', Ed. by Edward D. Palik,
;   Academic Press, Inc., 1985.
;   
;    Lambda (A)            n            k
;-----------------------------------------
       1033.17      0.830000      0.800000
       1078.09      0.870000      0.880000
       1127.09      0.890000      0.900000
       1180.76      0.890000      0.910000
       1239.80      0.830000      0.980000
       1305.05      0.790000       1.11000
       1377.56      0.820000       1.38000
       1458.59       1.00000       1.60000
       1549.75       1.30000       1.60000
       1589.89       1.32000       1.57000
       1699.99       1.51000       1.50000
       1780.04       1.54000       1.38000
       1939.92       1.46000       1.65000
       2049.93       1.98000       1.10000
       2099.93       1.46000       1.68000
       2099.93       2.02000       1.20000
       2209.98       2.26000       1.35000
       2319.99       2.31000       2.29000
       2389.75       2.36000       1.19000
       2549.98       2.37000       1.29000
       2659.94       2.44000       1.67000
       2720.05       2.49000       1.65000
       2730.24       2.50000       1.65000
       2760.02       2.59000       1.41000
       2879.91       2.83000       1.82000
       2940.00       3.02000       1.97000
       2970.29       3.00000       1.68000
       3070.33       3.42000       1.61000
       3179.79       4.00000       1.79000
       3270.38       3.87000      0.810000
       3440.07       4.30000       0.00000
       3580.13       3.38000      0.117000
       3880.44       2.88000       0.00000
       3999.35       3.00000       0.00000
       4020.10       3.00000    0.00800000
       4199.86       2.91000       0.00000
       4399.57       2.84000       0.00000
       4600.37       2.79000       0.00000
       4799.85       2.75000       0.00000
       4999.19       2.71000       0.00000
       5200.50       2.68000       0.00000
       5399.83       2.66000       0.00000
       5599.82       2.64000       0.00000
       5798.88       2.62000       0.00000
       6000.97       2.60000       0.00000
       6199.00       2.59000       0.00000
       6400.62       2.58000       0.00000
       6598.19       2.57000       0.00000
       6800.88       2.56000       0.00000
       7000.56       2.55000       0.00000
       7199.77       2.54000       0.00000
       7401.79       2.54000       0.00000
       7601.47       2.53000       0.00000
       7797.48       2.52000       0.00000
       7998.71       2.52000       0.00000
       8199.74       2.52000       0.00000
       8399.73       2.51000       0.00000
       8597.78       2.51000       0.00000
       8799.15       2.50000       0.00000
       8997.10       2.50000       0.00000
       9197.33       2.50000       0.00000
       9399.54       2.49000       0.00000
       9603.41       2.49000       0.00000
       9800.79       2.49000       0.00000
       9998.39       2.49000       0.00000
       10195.7       2.48000       0.00000
       10401.0       2.48000       0.00000
       10596.6       2.48000       0.00000
       10799.7       2.48000       0.00000
       11000.9       2.48000       0.00000
       11199.6       2.47000       0.00000
       11395.2       2.47000       0.00000
       11597.8       2.47000       0.00000
       11796.4       2.47000       0.00000
       12001.9       2.47000       0.00000
       12202.8       2.47000       0.00000
       12399.2       2.47000       0.00000
       12599.6       2.46000       0.00000
       12799.9       2.46000       0.00000
       12999.9       2.46000       0.00000
       13199.2       2.46000       0.00000
       13400.3       2.46000       0.00000
       13600.3       2.46000       0.00000
       13800.1       2.46000       0.00000
       13999.5       2.46000       0.00000
       14200.0       2.46000       0.00000
       14399.5       2.46000       0.00000
       14599.6       2.46000       0.00000
       14800.0       2.46000       0.00000
       15000.6       2.45000       0.00000
       24200.7       2.40000       0.00000
       33800.4       2.41000       0.00000
       37902.8       2.39000       0.00000
       42796.0       2.34000       0.00000
       48907.3       2.32000       0.00000
       57292.1       2.24000       0.00000
       67417.1       2.11000       0.00000
       111996.       1.01000      0.176000
       113952.      0.905000      0.209000
       115978.      0.784000      0.256000
       117964.      0.649000      0.328000
       120019.      0.513000      0.440000
       122028.      0.406000      0.591000
       123992.      0.340000      0.751000
       125996.      0.301000      0.902000
       127999.      0.278000       1.04000
       129999.      0.264000       1.17000
       131992.      0.255000       1.30000
       134003.      0.250000       1.42000
       136003.      0.249000       1.53000
       138001.      0.250000       1.65000
       139995.      0.253000       1.76000
       142000.      0.258000       1.87000
       143995.      0.265000       1.98000
       145996.      0.275000       2.09000
       148000.      0.287000       2.21000
       150006.      0.303000       2.32000
       151992.      0.322000       2.44000
       153993.      0.347000       2.56000
       155989.      0.378000       2.69000
       157997.      0.418000       2.81000
       159995.      0.468000       2.94000
       162002.      0.533000       3.07000
       163995.      0.614000       3.19000
       165993.      0.710000       3.30000
       167995.      0.814000       3.39000
       169999.      0.908000       3.45000
       172003.      0.972000       3.49000
       174007.       1.00000       3.54000
       176008.       1.00000       3.62000
       178004.       1.00000       3.76000
       179994.       1.02000       3.94000
       182002.       1.06000       4.16000
       184001.       1.15000       4.43000
       185989.       1.31000       4.74000
       187991.       1.56000       5.10000
       190008.       1.96000       5.51000
       192009.       2.62000       5.91000
       193992.       3.64000       6.12000
       195985.       4.96000       5.72000
       197988.       5.88000       4.51000
       200000.       5.95000       3.17000
       201988.       5.53000       2.21000
       203982.       5.01000       1.63000
       205981.       4.51000       1.27000
       207985.       4.06000       1.05000
       209993.       3.66000      0.909000
       212004.       3.29000      0.826000
       213980.       2.96000      0.783000
       215993.       2.64000      0.772000
       218006.       2.33000      0.792000
       219979.       2.03000      0.846000
       221987.       1.73000      0.941000
       223993.       1.45000       1.09000
       225993.       1.21000       1.28000
       227988.       1.03000       1.51000
       229976.      0.904000       1.75000
       231998.      0.822000       1.98000
       234013.      0.772000       2.19000
       236018.      0.744000       2.40000
       238011.      0.733000       2.59000
       239992.      0.737000       2.78000
       242007.      0.756000       2.96000
       244007.      0.790000       3.14000
       245992.      0.841000       3.32000
       248010.      0.916000       3.51000
       250010.       1.02000       3.70000
       251992.       1.17000       3.90000
       254005.       1.39000       4.09000
       255998.       1.70000       4.26000
       258023.       2.15000       4.33000
       259971.       2.70000       4.18000
       262003.       3.18000       3.67000
       264012.       3.30000       2.93000
       265994.       3.02000       2.26000
       268007.       2.52000       1.84000
       269991.       1.95000       1.66000
       272005.       1.40000       1.72000
       273989.      0.968000       1.95000
       276002.      0.704000       2.24000
       277982.      0.553000       2.51000
       279991.      0.465000       2.75000
       281965.      0.411000       2.95000
       283967.      0.377000       3.13000
       285998.      0.356000       3.30000
       287991.      0.344000       3.44000
       290012.      0.336000       3.58000
       291992.      0.333000       3.71000
       294000.      0.332000       3.83000
       295966.      0.334000       3.94000
       298029.      0.336000       4.05000
       299976.      0.341000       4.15000
       302022.      0.346000       4.25000
       304022.      0.351000       4.35000
       305972.      0.358000       4.45000
       308025.      0.365000       4.54000
       310028.      0.372000       4.63000
       311978.      0.380000       4.72000
       314032.      0.389000       4.81000
       316034.      0.398000       4.90000
       317979.      0.407000       4.98000
       320031.      0.416000       5.07000
       322026.      0.426000       5.16000
       323961.      0.436000       5.24000
       326006.      0.446000       5.33000
       327989.      0.457000       5.41000
       329997.      0.468000       5.49000
       332030.      0.480000       5.58000
       333998.      0.491000       5.66000
       335989.      0.503000       5.75000
       338004.      0.516000       5.83000
       339951.      0.528000       5.92000
       342014.      0.541000       6.00000
       344007.      0.555000       6.09000
       346023.      0.569000       6.17000
       347965.      0.583000       6.26000
       350028.      0.598000       6.34000
       352016.      0.613000       6.43000
       354026.      0.628000       6.52000
       355958.      0.644000       6.60000
       358013.      0.661000       6.69000
       359988.      0.678000       6.78000
       361985.      0.695000       6.87000
       364005.      0.713000       6.96000
   1.03317e+07       9.15000       0.00000
