;  Optical constants for tetragonal TiO2, ordinary ray
; 
;   taken from:
;
;   'Handbook of Optical Constants of Solids', Ed. by Edward D. Palik,
;   Academic Press, Inc., 1985.
;   
;    Lambda (A)            n            k
;-----------------------------------------
       1033.17      0.630000      0.770000
       1078.09      0.600000      0.810000
       1127.09      0.580000      0.910000
       1180.76      0.600000       1.01000
       1239.80      0.570000       1.07000
       1305.05      0.520000       1.21000
       1377.56      0.540000       1.42000
       1458.59      0.680000       1.64000
       1549.75      0.910000       1.81000
       1589.89      0.950000       1.77000
       1699.99       1.04000       1.94000
       1780.04       1.31000       2.03000
       1939.92       1.55000       1.77000
       2099.93       1.46000       1.65000
       2170.14       1.82000      0.971000
       2279.88       1.81000       1.17000
       2319.99       1.45000       2.15000
       2509.72       2.01000       1.71000
       2659.94       1.97000       3.36000
       2699.91       2.53000       2.09000
       2720.05       2.59000       3.47000
       2730.24       2.92000       3.49000
       2850.11       3.03000       2.21000
       2879.91       3.56000       3.55000
       2940.00       4.23000       3.48000
       3059.72       3.84000       1.95000
       3179.79       5.38000       2.18000
       3349.91       4.22000      0.788000
       3440.07       4.36000       0.00000
       3599.88       3.87000      0.251000
       3880.44       3.49000       0.00000
       3999.35       3.40000       0.00000
       4120.31       3.24000     0.0220000
       4199.86       3.29000       0.00000
       4399.57       3.20000       0.00000
       4600.37       3.13000       0.00000
       4799.85       3.08000       0.00000
       4999.19       3.03000       0.00000
       5200.50       3.00000       0.00000
       5390.44       2.95000       0.00000
       5399.83       2.97000       0.00000
       5599.82       2.94000       0.00000
       5798.88       2.92000       0.00000
       6000.97       2.90000       0.00000
       6199.00       2.88000       0.00000
       6400.62       2.87000       0.00000
       6598.19       2.85000       0.00000
       6800.88       2.84000       0.00000
       7000.56       2.83000       0.00000
       7199.77       2.82000       0.00000
       7401.79       2.81000       0.00000
       7601.47       2.81000       0.00000
       7797.48       2.80000       0.00000
       7998.71       2.79000       0.00000
       8199.74       2.79000       0.00000
       8399.73       2.78000       0.00000
       8597.78       2.78000       0.00000
       8799.15       2.77000       0.00000
       8997.10       2.77000       0.00000
       9197.33       2.76000       0.00000
       9399.54       2.76000       0.00000
       9603.41       2.76000       0.00000
       9800.79       2.75000       0.00000
       9998.39       2.75000       0.00000
       10195.7       2.75000       0.00000
       10401.0       2.74000       0.00000
       10596.6       2.74000       0.00000
       10799.7       2.74000       0.00000
       11000.9       2.74000       0.00000
       11199.6       2.74000       0.00000
       11395.2       2.73000       0.00000
       11597.8       2.73000       0.00000
       11796.4       2.73000       0.00000
       12001.9       2.73000       0.00000
       12202.8       2.73000       0.00000
       12399.2       2.72000       0.00000
       12599.6       2.72000       0.00000
       12799.9       2.72000       0.00000
       12999.9       2.72000       0.00000
       13199.2       2.72000       0.00000
       13400.3       2.72000       0.00000
       13600.3       2.72000       0.00000
       13800.1       2.72000       0.00000
       13999.5       2.72000       0.00000
       14200.0       2.71000       0.00000
       14399.5       2.71000       0.00000
       14599.6       2.71000       0.00000
       14800.0       2.71000       0.00000
       15000.6       2.71000       0.00000
       24200.7       2.59000       0.00000
       33800.4       2.58000       0.00000
       37902.8       2.57000       0.00000
       42796.0       2.51000       0.00000
       48907.3       2.49000       0.00000
       57292.1       2.43000       0.00000
       71706.2       2.27000       0.00000
       80402.1       2.06000       0.00000
       111996.       1.30000     0.0750000
       113952.       1.21000     0.0910000
       115978.       1.11000      0.111000
       117964.       1.01000      0.136000
       120019.      0.882000      0.171000
       122028.      0.743000      0.224000
       123992.      0.587000      0.310000
       125996.      0.441000      0.450000
       127999.      0.345000      0.625000
       129999.      0.296000      0.791000
       131992.      0.269000      0.940000
       136003.      0.245000       1.20000
       138001.      0.241000       1.31000
       139995.      0.239000       1.42000
       142000.      0.239000       1.52000
       143995.      0.240000       1.62000
       145996.      0.243000       1.72000
       148000.      0.247000       1.81000
       150006.      0.253000       1.90000
       151992.      0.259000       1.98000
       153993.      0.268000       2.07000
       155989.      0.278000       2.15000
       157997.      0.290000       2.24000
       159995.      0.306000       2.32000
       162002.      0.326000       2.39000
       163995.      0.351000       2.46000
       165993.      0.377000       2.52000
       167995.      0.398000       2.57000
       169999.      0.406000       2.61000
       172003.      0.401000       2.66000
       174007.      0.389000       2.71000
       176008.      0.378000       2.77000
       178004.      0.370000       2.84000
       179994.      0.366000       2.91000
       182002.      0.364000       2.98000
       184001.      0.365000       3.05000
       185989.      0.368000       3.12000
       187991.      0.372000       3.19000
       190008.      0.377000       3.25000
       192009.      0.382000       3.32000
       193992.      0.389000       3.39000
       195985.      0.395000       3.45000
       197988.      0.403000       3.52000
       201988.      0.418000       3.65000
       203982.      0.427000       3.72000
       205981.      0.435000       3.78000
       207985.      0.444000       3.84000
       209993.      0.453000       3.91000
       212004.      0.463000       3.97000
       213980.      0.472000       4.04000
       215993.      0.482000       4.10000
       218006.      0.492000       4.16000
       219979.      0.502000       4.23000
       221987.      0.513000       4.29000
       223993.      0.524000       4.35000
       225993.      0.535000       4.42000
       227988.      0.546000       4.48000
       229976.      0.557000       4.54000
       231998.      0.569000       4.60000
       234013.      0.581000       4.67000
       236018.      0.593000       4.73000
       238011.      0.605000       4.79000
       239992.      0.617000       4.85000
       242007.      0.630000       4.92000
       244007.      0.643000       4.98000
       245992.      0.656000       5.04000
       248010.      0.670000       5.11000
       250010.      0.683000       5.17000
       251992.      0.697000       5.23000
       254005.      0.711000       5.29000
       255998.      0.726000       5.36000
       258023.      0.740000       5.42000
       259971.      0.755000       5.48000
       262003.      0.771000       5.55000
       264012.      0.786000       5.61000
       265994.      0.802000       5.67000
       268007.      0.818000       5.74000
       269991.      0.834000       5.80000
       272005.      0.851000       5.87000
       273989.      0.867000       5.93000
       276002.      0.885000       5.99000
       277982.      0.902000       6.06000
       279991.      0.920000       6.12000
       281965.      0.938000       6.19000
       283967.      0.956000       6.25000
       285998.      0.975000       6.32000
       287991.      0.994000       6.38000
       290012.       1.01000       6.45000
       291992.       1.03000       6.51000
       294000.       1.05000       6.58000
       295966.       1.07000       6.64000
       298029.       1.09000       6.71000
       299976.       1.12000       6.78000
       302022.       1.14000       6.84000
       304022.       1.16000       6.91000
       305972.       1.18000       6.98000
       308025.       1.20000       7.04000
       310028.       1.23000       7.11000
       311978.       1.25000       7.18000
       314032.       1.28000       7.25000
       316034.       1.30000       7.31000
       317979.       1.33000       7.38000
       320031.       1.35000       7.45000
       322026.       1.38000       7.52000
       323961.       1.40000       7.59000
       326006.       1.43000       7.66000
       327989.       1.46000       7.73000
       329997.       1.48000       7.79000
       332030.       1.51000       7.86000
       333998.       1.54000       7.93000
       335989.       1.57000       8.00000
       338004.       1.60000       8.08000
       339951.       1.63000       8.15000
       342014.       1.66000       8.22000
       344007.       1.69000       8.29000
       346023.       1.73000       8.36000
       347965.       1.76000       8.43000
       350028.       1.79000       8.50000
       352016.       1.83000       8.58000
       354026.       1.86000       8.65000
       355958.       1.90000       8.72000
       358013.       1.93000       8.79000
       359988.       1.97000       8.87000
       361985.       2.01000       8.94000
       364005.       2.05000       9.01000
   1.03317e+07       12.8500       0.00000
