;  Optical constants for V
; 
;   taken from:
;
;   'Handbook of Optical Constants of Solids II', Ed. by Edward D. Palik,
;   Academic Press, Inc., 1991.
;   
;    Lambda (A)            n            k
;-----------------------------------------
       103.317      0.960000     0.0196000
       105.515      0.960000     0.0209000
       107.809      0.950000     0.0236000
       110.204      0.950000     0.0250000
       112.709      0.950000     0.0263000
       115.330      0.950000     0.0277000
       118.076      0.940000     0.0291000
       120.956      0.940000     0.0319000
       123.980      0.940000     0.0333000
       127.159      0.940000     0.0374000
       130.505      0.930000     0.0388000
       134.032      0.930000     0.0404000
       137.756      0.930000     0.0432000
       141.691      0.920000     0.0460000
       145.859      0.920000     0.0490000
       150.279      0.920000     0.0519000
       154.975      0.910000     0.0548000
       159.974      0.910000     0.0606000
       165.307      0.900000     0.0665000
       171.007      0.900000     0.0724000
       177.114      0.900000     0.0807000
       183.674      0.890000     0.0929000
       190.738      0.880000      0.100000
       198.368      0.880000      0.120000
       206.633      0.870000      0.140000
       215.617      0.860000      0.160000
       225.418      0.870000      0.190000
       236.152      0.890000      0.220000
       247.960      0.910000      0.240000
       261.011      0.940000      0.250000
       275.511      0.980000      0.250000
       291.718       1.01000      0.230000
       309.950      0.940000      0.160000
       317.897      0.930000      0.170000
       326.263      0.920000      0.180000
       335.081      0.900000      0.190000
       344.389      0.890000      0.190000
       354.229      0.880000      0.190000
       364.647      0.860000      0.190000
       375.697      0.830000      0.190000
       387.438      0.830000      0.180000
       399.935      0.840000      0.180000
       413.267      0.840000      0.160000
       427.517      0.840000      0.150000
       442.786      0.840000      0.120000
       459.185      0.830000      0.100000
       476.846      0.830000      0.130000
       495.920      0.810000      0.170000
       516.583      0.800000      0.220000
       539.043      0.780000      0.250000
       563.545      0.760000      0.290000
       590.381      0.710000      0.350000
       619.900      0.710000      0.420000
       652.526      0.720000      0.440000
       688.778      0.780000      0.480000
       729.294      0.830000      0.510000
       774.875      0.870000      0.520000
       826.533      0.920000      0.560000
       885.571      0.970000      0.610000
       953.692       1.02000      0.670000
       1033.17       1.04000      0.780000
       1127.09       1.08000      0.760000
       1239.80       1.10000      0.800000
       1377.56       1.11000      0.830000
       1549.75       1.10000      0.870000
       1771.14       1.09000      0.950000
       2066.33       1.14000       2.18000
       2101.36       1.14000       2.20000
       2137.59       1.13000       2.21000
       2175.09       1.12000       2.22000
       2213.93       1.12000       2.22000
       2254.18       1.13000       2.21000
       2295.93       1.14000       2.21000
       2339.25       1.16000       2.21000
       2384.23       1.17000       2.21000
       2430.98       1.20000       2.18000
       2479.60       1.23000       2.19000
       2530.20       1.26000       2.20000
       2582.92       1.30000       2.20000
       2637.87       1.30000       2.29000
       2695.22       1.32000       2.35000
       2755.11       1.34000       2.42000
       2817.73       1.39000       2.50000
       2883.26       1.41000       2.57000
       2951.90       1.46000       2.65000
       3023.90       1.51000       2.73000
       3099.50       1.56000       2.81000
       3178.97       1.64000       2.89000
       3262.63       1.73000       2.97000
       3350.81       1.84000       3.06000
       3443.89       1.96000       3.14000
       3542.29       2.07000       3.22000
       3646.47       2.18000       3.26000
       3756.97       2.30000       3.31000
       3874.38       2.42000       3.33000
       3999.35       2.55000       3.38000
       4132.67       2.71000       3.38000
       4275.17       2.84000       3.42000
       4427.86       3.03000       3.40000
       4591.85       3.19000       3.38000
       4768.46       3.36000       3.33000
       4959.20       3.53000       3.26000
       5165.83       3.63000       3.15000
       5390.44       3.68000       3.05000
       5635.45       3.68000       2.98000
       5903.81       3.65000       2.94000
       6199.00       3.55000       2.93000
       6525.26       3.50000       2.99000
       6887.78       3.43000       3.05000
       7292.94       3.41000       3.08000
       7748.75       3.42000       3.14000
       8265.33       3.47000       3.18000
       8855.71       3.43000       3.22000
       9536.92       3.38000       3.31000
       10331.7       3.19000       3.54000
       11270.9       2.95000       3.87000
       12398.0       2.69000       4.43000
       13775.6       2.56000       5.02000
       15497.5       2.52000       5.77000
       17711.4       2.56000       6.83000
       20663.3       2.62000       8.19000
       24796.0       2.72000       9.73000
       30995.0       1.38000       11.9000
       34438.9       1.57000       13.3200
       38743.8       1.79000       15.0800
       44278.6       2.13000       17.3500
       51658.3       2.82000       20.3200
       61990.0       3.90000       24.3000
       77487.5       5.77000       30.0300
       103317.       9.51000       38.9700
       123980.       12.8300       45.8900
