;  Optical constants for VN
; 
;   taken from:
;
;   'Handbook of Optical Constants of Solids II', Ed. by Edward D. Palik,
;   Academic Press, Inc., 1991.
;   
;    Lambda (A)            n            k
;-----------------------------------------
       310.727      0.833000     0.0671000
       317.897      0.823000     0.0649000
       326.263      0.805000     0.0722000
       335.081      0.788000     0.0790000
       344.389      0.772000     0.0926000
       354.229      0.758000      0.106000
       364.647      0.741000      0.122000
       375.697      0.727000      0.140000
       387.438      0.712000      0.162000
       399.935      0.696000      0.186000
       413.267      0.683000      0.209000
       427.517      0.665000      0.235000
       442.786      0.644000      0.270000
       459.185      0.628000      0.318000
       476.846      0.619000      0.381000
       495.920      0.634000      0.443000
       516.583      0.663000      0.495000
       539.043      0.695000      0.530000
       563.545      0.714000      0.560000
       590.381      0.736000      0.598000
       619.900      0.759000      0.635000
       652.526      0.782000      0.667000
       688.778      0.797000      0.691000
       729.294      0.803000      0.734000
       774.875      0.829000      0.806000
       826.533      0.873000      0.865000
       885.571      0.922000      0.902000
       953.692      0.973000      0.924000
       1033.17      0.931000      0.946000
       1078.09      0.903000       1.00000
       1127.09      0.896000       1.10000
       1180.76      0.922000       1.20000
       1239.80      0.982000       1.31000
       1305.05       1.07000       1.39000
       1377.56       1.17000       1.46000
       1458.59       1.25000       1.51000
       1549.75       1.36000       1.57000
       1653.07       1.46000       1.60000
       1771.14       1.56000       1.65000
       1907.38       1.66000       1.68000
       2066.33       1.82000       1.74000
       2254.18       1.98000       1.70000
       2479.60       2.10000       1.64000
       2755.11       2.19000       1.56000
       3099.50       2.20000       1.54000
       3542.29       2.18000       1.58000
       4132.67       2.13000       1.70000
       4959.20       2.17000       1.98000
       6199.00       2.35000       2.47000
       8265.33       2.73000       2.92000
       12398.0       3.19000       3.66000
       24796.0       4.23000       6.13000
