;  Optical constants for polycrystalline W
; 
;   taken from:
;
;   'Handbook of Optical Constants of Solids', Ed. by Edward D. Palik,
;   Academic Press, Inc., 1985.
;   
;    Lambda (A)            n            k
;-----------------------------------------
       6.19900      0.999560   0.000400000
       6.35143      0.999637   0.000434000
       6.50814      0.999721   0.000471000
       6.66559      0.999810   0.000344000
       6.83085      0.999908   0.000369000
       6.99661      0.999656   0.000131000
       7.16647      0.999536   0.000142000
       7.34479      0.999458   0.000153000
       7.52306      0.999390   0.000165000
       7.70541      0.999330   0.000178000
       7.89682      0.999273   0.000192000
       8.08741      0.999218   0.000207000
       8.28743      0.999161   0.000223000
       8.49178      0.999106   0.000241000
       8.69425      0.999051   0.000259000
       8.90661      0.998990   0.000279000
       9.12960      0.998930   0.000301000
       9.34993      0.998870   0.000324000
       9.58114      0.998810   0.000350000
       9.81631      0.998740   0.000377000
       10.0552      0.998680   0.000405000
       10.2973      0.998610   0.000435000
       10.5515      0.998540   0.000468000
       10.8091      0.998460   0.000503000
       11.0795      0.998380   0.000541000
       11.3431      0.998310   0.000581000
       11.6195      0.998220   0.000624000
       11.9097      0.998140   0.000672000
       12.2028      0.998050   0.000722000
       12.4980      0.997960   0.000774000
       12.8079      0.997860   0.000831000
       13.1196      0.997770   0.000890000
       13.4323      0.997670   0.000953000
       13.7603      0.997570    0.00102000
       14.1047      0.997460    0.00109000
       14.4499      0.997350    0.00117000
       14.7947      0.997240    0.00125000
       15.1565      0.997120    0.00134000
       15.5363      0.997000    0.00144000
       15.9153      0.996880    0.00154000
       16.3132      0.996780    0.00165000
       16.7089      0.996630    0.00176000
       17.1007      0.996510    0.00187000
       17.5361      0.996370    0.00200000
       17.9681      0.996250    0.00213000
       18.3947      0.996110    0.00226000
       18.8419      0.995980    0.00241000
       19.3115      0.995860    0.00257000
       19.7735      0.995740    0.00271000
       20.2582      0.995610    0.00284000
       20.7672      0.995470    0.00298000
       21.2659      0.995310    0.00313000
       21.7891      0.995130    0.00329000
       22.3387      0.994940    0.00349000
       22.8745      0.994780    0.00370000
       23.4367      0.994620    0.00391000
       24.0271      0.994460    0.00414000
       24.5992      0.994300    0.00435000
       25.1992      0.994140    0.00458000
       25.8292      0.993970    0.00483000
       26.4350      0.993820    0.00507000
       27.0699      0.993690    0.00534000
       27.7360      0.993570    0.00557000
       28.4358      0.993430    0.00578000
       29.1033      0.993260    0.00597000
       29.8747      0.993050    0.00620000
       30.5369      0.992840    0.00640000
       31.3081      0.992580    0.00663000
       32.1192      0.992290    0.00695000
       32.8859      0.992030    0.00726000
       33.6902      0.991770    0.00759000
       34.5348      0.991500    0.00795000
       35.3219      0.991260    0.00829000
       36.2515      0.990980    0.00870000
       37.1198      0.990720    0.00910000
       38.0307      0.990460    0.00952000
       38.9874      0.990200    0.00997000
       39.8650      0.990000     0.0104000
       40.9175      0.989700     0.0109000
       41.8851      0.989500     0.0114000
       42.8997      0.989300     0.0119000
       43.9645      0.989100     0.0125000
       45.0836      0.989000     0.0130000
       46.0892      0.988800     0.0134000
       47.3206      0.988700     0.0138000
       48.4297      0.988400     0.0142000
       49.5920      0.988200     0.0146000
       50.8115      0.987900     0.0150000
       52.0924      0.987600     0.0155000
       53.4397      0.987400     0.0160000
       54.6167      0.987100     0.0164000
       56.0995      0.986700     0.0170000
       57.3981      0.986400     0.0175000
       58.7583      0.986100     0.0180000
       60.1845      0.985800     0.0184000
       61.6816      0.985500     0.0189000
       63.2551      0.985200     0.0194000
       64.9110      0.984800     0.0199000
       66.2995      0.984500     0.0202000
       68.1209      0.984000     0.0205000
       69.6517      0.983500     0.0209000
       71.2529      0.982900     0.0212000
       72.9294      0.982300     0.0215000
       74.6867      0.981600     0.0219000
       76.5309      0.980800     0.0223000
       78.4684      0.980000     0.0226000
       80.5065      0.979100     0.0230000
       82.6533      0.978200     0.0234000
       84.3401      0.977400     0.0239000
       86.6993      0.976000     0.0248000
       88.5571      0.974500     0.0256000
       91.1618      0.971700     0.0267000
       93.2180      0.969000     0.0275000
       95.3692      0.966100     0.0285000
       97.6220      0.964700     0.0294000
       99.9839      0.963700     0.0303000
       102.463      0.962700     0.0313000
       105.068      0.961200     0.0322000
       107.809      0.959400     0.0333000
       110.696      0.957300     0.0344000
       112.709      0.955800     0.0351000
       115.869      0.953200     0.0363000
       119.212      0.950200     0.0376000
       121.549      0.947900     0.0385000
       123.980      0.945200     0.0395000
       263.787      0.774000      0.195000
       269.522      0.762000      0.205000
       275.511      0.750000      0.225000
       281.773      0.746000      0.245000
       288.326      0.744000      0.274000
       295.190      0.756000      0.304000
       302.390      0.778000      0.319000
       309.950      0.797000      0.328000
       317.897      0.814000      0.330000
       326.263      0.826000      0.330000
       335.081      0.837000      0.328000
       344.389      0.846000      0.320000
       354.229      0.848000      0.306000
       359.362      0.844000      0.298000
       364.647      0.838000      0.291000
       370.090      0.829000      0.285000
       375.697      0.816000      0.278000
       381.477      0.797000      0.286000
       387.438      0.791000      0.295000
       393.587      0.788000      0.294000
       399.935      0.778000      0.293000
       406.492      0.765000      0.292000
       413.267      0.750000      0.295000
       416.740      0.742000      0.296000
       420.271      0.733000      0.297000
       423.863      0.724000      0.298000
       427.517      0.712000      0.301000
       431.235      0.700000      0.306000
       435.018      0.690000      0.310000
       438.867      0.679000      0.318000
       442.786      0.671000      0.322000
       446.775      0.656000      0.328000
       450.836      0.643000      0.336000
       454.972      0.631000      0.346000
       459.185      0.619000      0.357000
       462.612      0.610000      0.365000
       466.090      0.600000      0.375000
       469.621      0.591000      0.383000
       473.206      0.580000      0.394000
       476.846      0.571000      0.404000
       480.543      0.560000      0.415000
       484.297      0.548000      0.429000
       488.110      0.537000      0.444000
       491.984      0.528000      0.461000
       495.920      0.521000      0.476000
       499.919      0.511000      0.494000
       503.984      0.503000      0.513000
       508.115      0.497000      0.534000
       512.314      0.491000      0.554000
       516.583      0.487000      0.575000
       520.924      0.483000      0.598000
       525.339      0.484000      0.621000
       529.829      0.486000      0.643000
       534.397      0.490000      0.663000
       539.043      0.494000      0.679000
       543.772      0.494000      0.695000
       548.584      0.493000      0.712000
       553.482      0.492000      0.730000
       558.468      0.491000      0.751000
       563.545      0.491000      0.773000
       568.716      0.492000      0.796000
       573.981      0.496000      0.819000
       579.346      0.499000      0.842000
       584.811      0.503000      0.866000
       590.381      0.508000      0.892000
       596.058      0.517000      0.918000
       601.845      0.525000      0.943000
       607.745      0.537000      0.969000
       613.762      0.549000      0.994000
       619.900      0.563000       1.02000
       626.162      0.579000       1.05000
       632.551      0.599000       1.07000
       639.072      0.621000       1.09000
       645.729      0.642000       1.11000
       652.526      0.665000       1.13000
       659.468      0.688000       1.15000
       666.559      0.712000       1.16000
       673.804      0.738000       1.18000
       681.209      0.766000       1.19000
       688.778      0.796000       1.20000
       696.517      0.822000       1.20000
       704.432      0.847000       1.21000
       712.529      0.874000       1.21000
       720.814      0.900000       1.20000
       729.294      0.922000       1.20000
       737.976      0.944000       1.19000
       746.867      0.959000       1.18000
       755.976      0.973000       1.17000
       765.309      0.980000       1.15000
       774.875      0.981000       1.14000
       784.684      0.976000       1.13000
       794.744      0.966000       1.12000
       805.065      0.951000       1.12000
       815.658      0.933000       1.13000
       826.533      0.917000       1.14000
       837.703      0.904000       1.17000
       849.178      0.900000       1.20000
       860.972      0.901000       1.23000
       873.099      0.906000       1.25000
       885.571      0.913000       1.28000
       898.406      0.923000       1.32000
       911.618      0.941000       1.35000
       925.224      0.962000       1.37000
       939.242      0.984000       1.40000
       953.692       1.01000       1.42000
       968.594       1.04000       1.44000
       983.968       1.07000       1.46000
       999.839       1.10000       1.47000
       1016.23       1.13000       1.48000
       1033.17       1.16000       1.48000
       1041.85       1.18000       1.48000
       1050.68       1.20000       1.48000
       1059.66       1.21000       1.48000
       1068.79       1.22000       1.48000
       1078.09       1.24000       1.47000
       1087.54       1.25000       1.46000
       1097.17       1.26000       1.45000
       1106.96       1.27000       1.44000
       1116.94       1.28000       1.43000
       1127.09       1.28000       1.42000
       1137.43       1.29000       1.41000
       1147.96       1.29000       1.39000
       1158.69       1.28000       1.38000
       1169.62       1.28000       1.36000
       1180.76       1.26000       1.34000
       1192.12       1.24000       1.33000
       1203.69       1.22000       1.33000
       1215.49       1.19000       1.33000
       1227.52       1.16000       1.33000
       1239.80       1.13000       1.34000
       1252.32       1.11000       1.36000
       1265.10       1.09000       1.38000
       1278.14       1.07000       1.41000
       1291.46       1.05000       1.44000
       1305.05       1.04000       1.47000
       1318.94       1.03000       1.50000
       1333.12       1.03000       1.52000
       1347.61       1.02000       1.55000
       1362.42       1.02000       1.57000
       1377.56       1.01000       1.60000
       1393.03       1.02000       1.63000
       1408.86       1.01000       1.65000
       1425.06      0.999000       1.67000
       1441.63      0.986000       1.70000
       1458.59      0.973000       1.73000
       1475.95      0.956000       1.76000
       1493.73      0.943000       1.81000
       1511.95      0.935000       1.86000
       1530.62      0.935000       1.91000
       1549.75      0.937000       1.95000
       1569.37      0.932000       2.00000
       1589.49      0.930000       2.06000
       1610.13      0.937000       2.12000
       1631.32      0.950000       2.18000
       1653.07      0.964000       2.24000
       1675.41      0.979000       2.29000
       1698.36      0.993000       2.36000
       1721.94       1.01000       2.43000
       1746.20       1.04000       2.49000
       1771.14       1.06000       2.56000
       1796.81       1.09000       2.63000
       1823.24       1.12000       2.70000
       1850.45       1.16000       2.78000
       1878.48       1.21000       2.87000
       1907.38       1.26000       2.95000
       1937.19       1.31000       3.04000
       1967.94       1.38000       3.14000
       1999.68       1.47000       3.24000
       2032.46       1.58000       3.33000
       2066.33       1.70000       3.42000
       2101.36       1.83000       3.52000
       2137.59       2.00000       3.61000
       2175.09       2.20000       3.67000
       2213.93       2.43000       3.70000
       2254.18       2.68000       3.68000
       2295.93       2.92000       3.58000
       2339.25       3.11000       3.43000
       2384.23       3.27000       3.27000
       2430.98       3.38000       3.05000
       2479.60       3.40000       2.85000
       2530.20       3.37000       2.68000
       2582.92       3.33000       2.57000
       2637.87       3.29000       2.48000
       2695.22       3.24000       2.41000
       2755.11       3.19000       2.35000
       2817.73       3.13000       2.32000
       2883.26       3.07000       2.31000
       2951.90       3.01000       2.33000
       3023.90       2.97000       2.37000
       3099.50       2.95000       2.43000
       3138.73       2.95000       2.46000
       3178.97       2.96000       2.50000
       3220.26       2.98000       2.53000
       3262.63       2.99000       2.56000
       3306.13       3.02000       2.60000
       3350.81       3.05000       2.62000
       3396.71       3.09000       2.65000
       3443.89       3.13000       2.67000
       3492.39       3.18000       2.69000
       3542.29       3.24000       2.70000
       3593.62       3.32000       2.70000
       3646.47       3.39000       2.66000
       3700.90       3.43000       2.60000
       3756.97       3.45000       2.55000
       3814.77       3.45000       2.49000
       3874.38       3.43000       2.45000
       3935.87       3.41000       2.43000
       3999.35       3.39000       2.41000
       4064.92       3.37000       2.42000
       4132.67       3.35000       2.42000
       4202.71       3.33000       2.43000
       4275.17       3.32000       2.45000
       4350.18       3.31000       2.47000
       4427.86       3.30000       2.49000
       4508.36       3.31000       2.53000
       4591.85       3.31000       2.55000
       4678.49       3.32000       2.59000
       4768.46       3.34000       2.62000
       4861.96       3.35000       2.64000
       4959.20       3.38000       2.68000
       5060.41       3.42000       2.71000
       5165.83       3.45000       2.72000
       5275.75       3.48000       2.72000
       5390.44       3.50000       2.72000
       5510.22       3.50000       2.73000
       5635.45       3.49000       2.75000
       5766.51       3.51000       2.81000
       5903.81       3.54000       2.84000
       6047.81       3.57000       2.86000
       6199.00       3.60000       2.89000
       6357.95       3.65000       2.92000
       6525.26       3.70000       2.94000
       6701.62       3.76000       2.95000
       6887.78       3.82000       2.91000
       7084.57       3.85000       2.86000
       7292.94       3.84000       2.78000
       7513.94       3.78000       2.72000
       7748.75       3.67000       2.68000
       7998.71       3.56000       2.73000
       8265.33       3.48000       2.79000
       8550.34       3.38000       2.85000
       8855.71       3.29000       2.96000
       9183.70       3.20000       3.07000
       9536.92       3.12000       3.24000
       9918.40       3.05000       3.39000
       10331.7       3.00000       3.64000
       10780.9       3.02000       3.83000
       11270.9       3.05000       4.04000
       11807.6       3.11000       4.19000
       12398.0       3.14000       4.32000
       12651.0       3.15000       4.36000
       12914.6       3.15000       4.41000
       13189.4       3.15000       4.43000
       13476.1       3.14000       4.45000
       13775.6       3.11000       4.44000
       14088.6       3.05000       4.42000
       14250.6       3.00000       4.39000
       14416.3       2.92000       4.37000
       14585.9       2.80000       4.33000
       14759.5       2.62000       4.37000
       14937.3       2.47000       4.47000
       15119.5       2.36000       4.61000
       15497.5       2.22000       4.85000
       15894.9       2.12000       5.05000
       16313.2       1.97000       5.27000
       16754.1       1.83000       5.52000
       17219.4       1.70000       5.81000
       17711.4       1.59000       6.13000
       18232.4       1.52000       6.45000
       18784.8       1.45000       6.78000
       19371.9       1.36000       7.14000
       19996.8       1.28000       7.52000
       20663.3       1.21000       7.96000
       21375.9       1.18000       8.44000
       22139.3       1.20000       8.94000
       22959.3       1.23000       9.45000
       23842.3       1.30000       9.98000
       24796.0       1.40000       10.5000
       25829.2       1.54000       11.1000
       26952.2       1.69000       11.6000
       28177.3       1.82000       12.1000
       29519.0       1.92000       12.6000
       30995.0       1.94000       13.2000
       32626.3       1.86000       13.9000
       34438.9       1.82000       14.7000
       36464.7       1.71000       15.7000
       38743.8       1.72000       16.9000
       41326.7       1.83000       18.3000
       49592.0       2.56000       22.4000
       61990.0       3.87000       28.3000
       68877.8       4.72000       31.5000
       77487.5       5.92000       35.3000
       88557.1       7.58000       40.2000
       103317.       10.1000       46.4000
       123980.       14.1000       54.7000
       137756.       17.0000       60.0000
       154975.       20.9000       66.3000
       177114.       26.5000       73.8000
       206633.       34.5000       82.9000
       247960.       46.5000       93.7000
