;  Optical constants for in-situ sputtered W
; 
;   taken from:
;
;   C. Tarrio et al, App. Opt. 37, 4100, 1998.
;   
;    Lambda (A)            n            k
;-----------------------------------------
       77.487500       0.98290000      0.028000000
       82.653333       0.98135000      0.026750000
       88.557143       0.97840000      0.026400000
       95.369231       0.97420000      0.027160000
       103.31667       0.97090000      0.028650000
       113.42055       0.95976000      0.028700000
       115.39464       0.95791500      0.028675000
       117.31643       0.95600000      0.029100000
       119.28035       0.95405000      0.029500000
       121.23998       0.95227000      0.030000000
       123.16710       0.95018000      0.030300000
       123.98000       0.95130000      0.030900000
       125.08197       0.94815000      0.030500000
       127.05082       0.94571500      0.030860000
       128.96984       0.94330000      0.031150000
       130.93805       0.94065000      0.031650000
       132.85754       0.93782000      0.032350000
       134.82682       0.93510000      0.033300000
       136.74516       0.93227500      0.034150000
       137.75556       0.93040000      0.034000000
       138.71422       0.92930000      0.035200000
       140.63386       0.92622000      0.036625000
       142.55326       0.92320000      0.037800000
       144.52410       0.91975000      0.039070000
       146.46882       0.91625000      0.040750000
       148.41328       0.91283000      0.042500000
       150.38451       0.90897000      0.044500000
       152.30397       0.90530000      0.046800000
       154.27498       0.90150000      0.049150000
       154.97500       0.90200000      0.045500000
       156.19528       0.89800000      0.051375000
       158.16600       0.89455000      0.054800000
       160.08780       0.89060000      0.058050000
       162.01030       0.88710000      0.061000000
       163.97953       0.88335000      0.064400000
       165.90170       0.88005000      0.067825000
       167.87402       0.87650000      0.071500000
       169.84725       0.87320000      0.075950000
       171.76741       0.86945000      0.079850000
       173.69011       0.86630000      0.084300000
       175.66132       0.86280000      0.088486000
       177.11429       0.86600000      0.084500000
       177.58616       0.85920000      0.092419000
       179.55885       0.85590000      0.095901000
       181.53067       0.85260000       0.10024000
       183.45393       0.85035000       0.10472000
       185.42670       0.84760000       0.10821000
       188.34503       0.84605000       0.11670000
       193.22060       0.84065000       0.13125000
       198.09859       0.83735000       0.14795000
       202.97970       0.83760000       0.16565000
       206.63333       0.83500000       0.16500000
       207.85971       0.83670000       0.18100000
       212.74624       0.84170000       0.19405000
       217.63095       0.84310000       0.21095000
       222.51736       0.84830000       0.22715000
       227.40696       0.85835000       0.24490000
       232.29844       0.87345000       0.26240000
       237.19151       0.89280000       0.27555000
       242.08224       0.91465000       0.27870000
       246.98195       0.94125000       0.27325000
       247.96000       0.92430000       0.26580000
       251.87924       0.94915000       0.25320000
       256.77775       0.95140000       0.23635000
       261.67711       0.93630000       0.21825000
       266.58353       0.92044000       0.21195000
       271.48707       0.90330000       0.21355000
       276.39558       0.89160000       0.22460000
       281.29963       0.88130000       0.24160000
       286.20897       0.88000000       0.26640000
       291.12170       0.88690000       0.29045000
       296.03629       0.91030000       0.31550000
       300.95155       0.93371500       0.31490000
       305.86668       0.94930500       0.28840000
       310.78913       0.94535000       0.24975000
       315.71174       0.93645000       0.21990000
       320.63517       0.93680000       0.20335000
       325.55208       0.93185000       0.17925000
       330.48114       0.93635000       0.16345000
       335.40742       0.93990000       0.14270000
