;  Optical constants for W
; 
;   taken from:
;
;   J. H. Weaver, C. Krafka, D. W. Lynch, and E. E. Koch, 'Physik Daten,
;   Physics Data: Optical Properties of Metals', Vol. 18-1 and 18-2,
;   Fach-information zentrum, Karlsruhe, 1981.
;   
;    Lambda (A)            n            k
;-----------------------------------------
   309.95    .80	.33
   317.90    .81	.33
   326.26    .83	.33
   335.08    .84	.33
   344.39    .85	.32
   354.23    .85	.31
   359.36    .85	.30
   364.65    .84	.29
   370.09    .83	.28
   375.70    .82	.28
   381.48    .80	.29
   387.44    .79	.29
   393.59    .79	.29
   399.94    .78	.29
   406.49    .76	.29
   413.27    .75	.29
   416.74    .74	.30
   420.27    .73	.30
   423.86    .72	.30
   427.52    .71	.30
   431.23    .70	.31
   435.02    .69	.31
   438.87    .68	.32
   442.79    .67	.32
   446.77    .66	.33
   450.84    .64	.34
   454.97    .63	.35
   459.19    .62	.36
   462.61    .61	.37
   466.09    .60	.38
   469.62    .59	.38
   473.21    .58	.39 
   476.85    .57	.40
   480.54    .56	.41
   484.30    .55	.43
   488.11    .54	.44
   491.98    .53	.46
   495.92    .52	.48
   499.92    .51	.49
   503.98    .50	.51
   508.11    .50	.53
   512.3     .49	.55
   516.58    .49	.57
   520.92    .48	.60
   525.34    .48	.62
   529.83    .49	.64
   534.40    .49	.66
   539.04    .49	.68
   543.77    .49	.69
   548.58    .49	.71
   553.48    .49	.73
   558.47    .49	.75
   563.55    .49	.77
   568.72    .49	.80
   573.98    .50	.82
   579.35    .50	.84
   584.81    .50	.87
   590.38    .51	.89
   596.06    .52	.92
   601.84    .52	.94
   607.75    .54	.97 
   613.76    .55	.99
   619.90    .56	1.02
   626.16    .58	1.05
   632.55    .60	1.07
   639.07    .62	1.09
   645.73    .64	1.11
   652.53    .67	1.13 
   659.47    .69	1.15
   666.56    .71	1.16
   673.80    .74	1.18
   681.21    .77	1.19
   688.78    .80	1.20
   696.52    .82	1.20
   704.43    .85	1.21
   712.53    .87	1.21
   720.81    .90	1.21
   729.29    .92	1.20
   737.98    .94	1.19
   746.87    .96	1.18
   755.98    .97	1.17
   765.31    .98	1.15
   774.88    .98	1.14 
   784.68    .98	1.13
   794.74    .97	1.12
   805.06    .95	1.12
   815.66    .93	1.13
   826.53    .92	1.14
   837.70    .90	1.17
   849.18    .90	1.20
   860.97    .90	1.23
   873.10    .91	1.25
   885.57    .91	1.28
   898.41    .92	1.32
   911.62    .94	1.35
   925.22    .96	1.37
   939.24    .98	1.40
   953.69    1.01	1.42
   968.59    1.04	1.44
   983.97    1.07	1.46
   999.84    1.10	1.47
   1016.2    1.13	1.48
   1033.2    1.16	1.48
   1041.8    1.18	1.48
   1050.7    1.20	1.48
   1059.7    1.21	1.48
   1068.8    1.22	1.48
   1078.1    1.24	1.47
   1087.5    1.25	1.46
   1097.2    1.26	1.45
   1107.0    1.27	1.44
   1116.9    1.28	1.43
   1127.1    1.28	1.42
   1137.4    1.29	1.41
   1148.0    1.29	1.39
   1158.7    1.28	1.38
   1169.6    1.27	1.36
   1180.8    1.26	1.35
   1192.1    1.24	1.34
   1203.7    1.22	1.33
   1215.5    1.19	1.33
   1227.5    1.16	1.33
   1239.8    1.13	1.34
   1252.3    1.11	1.36
   1265.1    1.09	1.38
   1278.1    1.07	1.41
   1291.5    1.05	1.44
   1305.1    1.04	1.47
   1318.9    1.03	1.50    
   1333.1    1.03	1.52
   1347.6    1.02	1.55
   1362.4    1.02	1.57
   1377.6    1.01	1.60
   1393.0    1.02	1.63
   1408.9    1.01	1.65
   1425.1    1.00	1.67
   1441.6    .99	1.70
   1458.6    .97	1.73
   1476.0    .96	1.76
   1493.7    .94	1.81
   1512.0    .94	1.86
   1530.6    .94	1.91
   1549.8    .94	1.95
   1569.4    .93	2.00
   1589.5    .93	2.06
   1610.1    .94	2.12
   1631.3    .95	2.18	
   1653.1    .96	2.24
   1675.4    .98	2.3
   1698.4    .99	2.36
   1721.9    1.01	2.43
   1746.2    1.04	2.49
   1771.1    1.06	2.56
   1796.8    1.09	2.63
   1823.2    1.12	2.70
   1850.4    1.16	2.78
   1878.5    1.21	2.87
   1907.4    1.26	2.95
   1937.2    1.32	3.04
   1967.9    1.38	3.14
   1999.7    1.47	3.24
   2032.5    1.58	3.33
   2066.3    1.70	3.42
   2101.4    1.83	3.52
   2137.6    2.0	3.61
   2175.1    2.2	3.67
   2213.9    2.43	3.70
   2254.2    2.68	3.68
   2295.9    2.92	3.58
   2339.2    3.11	3.43
   2384.2    3.27	3.27
   2431.0    3.38	3.05
   2479.6    3.40	2.85
   2530.2    3.37	2.68
   2582.9    3.33	2.57
   2637.9    3.29	2.48
   2695.2    3.24	2.41
   2755.1    3.19	2.35
   2817.7    3.13	2.32
   2883.3    3.07	2.31
   2951.9    3.02	2.33
   3023.9    2.97	2.37
   3099.5    2.95	2.43
   3138.7    2.95	2.46
   3179.0    2.96	2.50
   3220.3    2.98	2.53
   3262.6    2.99	2.56
   3306.1    3.02	2.60
   3350.8    3.05	2.62
   3396.7    3.09	2.65
   3443.9    3.13	2.67
   3492.4    3.18	2.69
   3542.3    3.24	2.70
   3593.6    3.32	2.70
   3646.5    3.39	2.66
   3700.9    3.43	2.60
   3757.0    3.45	2.55
   3814.8    3.45	2.49
   3874.4    3.43	2.45
   3935.9    3.41	2.43
   3999.4    3.39	2.41
   4064.9    3.37	2.42
   4132.7    3.35	2.42
   4202.7    3.33	2.43
   4275.2    3.32	2.45
   4350.2    3.31	2.47
   4427.9    3.31	2.49
   4508.4    3.31	2.53
   4591.9    3.31	2.55
   4678.5    3.32	2.59
   4768.5    3.34	2.62
   4862.0    3.35	2.64
   4959.2    3.38	2.68
   5060.4    3.41	2.71
   5165.8    3.45	2.72
   5275.7    3.48	2.72
   5390.4    3.49	2.72
   5510.2    3.50	2.73
   5635.5    3.49	2.76
   5766.5    3.51	2.81
   5903.8    3.54	2.84
   6047.8    3.57	2.86
   6199.0    3.60	2.89
   6357.9    3.65	2.92
   6525.3    3.70	2.94
   6701.6    3.76	2.95
   6887.8    3.82	2.91
   7084.6    3.85	2.86
   7292.9    3.84	2.79
   7513.9    3.78	2.72 
   7748.8    3.67	2.68
   7998.7    3.56	2.73
   8265.3    3.48	2.79
   8550.3    3.38	2.85
   8855.7    3.29	2.96
   9183.7    3.2	3.07
   9536.9    3.12	3.24
   9918.4    3.05	3.39
   10332.    3.00	3.64
   10781.    3.02	3.83
   11271.    3.05	4.04
   11808.    3.11	4.19
   12398.    3.14	4.32  
