;  Optical constants for cubic Y2O3
; 
;   taken from:
;
;   'Handbook of Optical Constants of Solids II', Ed. by Edward D. Palik,
;   Academic Press, Inc., 1991.
;   
;    Lambda (A)            n            k
;-----------------------------------------
       309.950      0.624000      0.272000
       317.897      0.624000      0.295000
       326.263      0.624000      0.314000
       335.081      0.623000      0.356000
       344.389      0.621000      0.388000
       354.229      0.621000      0.461000
       364.647      0.671000      0.535000
       375.697      0.775000      0.565000
       387.438      0.823000      0.535000
       399.935      0.832000      0.515000
       413.267      0.834000      0.543000
       427.517      0.876000      0.596000
       442.786      0.942000      0.567000
       459.185      0.965000      0.561000
       476.846      0.985000      0.551000
       495.920      0.997000      0.550000
       506.041       1.00000      0.554000
       516.583       1.01600      0.564000
       527.574       1.02500      0.563000
       539.043       1.03900      0.556000
       551.022       1.04800      0.547000
       563.545       1.04500      0.540000
       576.651       1.04400      0.545000
       590.381       1.04100      0.542000
       604.781       1.04000      0.543000
       619.900       1.04100      0.553000
       635.795       1.04200      0.560000
       652.526       1.04200      0.570000
       670.162       1.04200      0.584000
       688.778       1.03900      0.595000
       708.457       1.05100      0.618000
       729.294       1.07200      0.639000
       751.394       1.08400      0.631000
       774.875       1.06200      0.597000
       799.871      0.979000      0.578000
       826.533      0.892000      0.605000
       855.034      0.819000      0.702000
       885.571      0.829000      0.860000
       891.942      0.843000      0.900000
       898.406      0.857000      0.938000
       904.964      0.875000      0.971000
       911.618      0.894000       1.00300
       918.370      0.917000       1.03500
       925.224      0.940000       1.06700
       932.180      0.973000       1.10100
       939.242       1.01700       1.13700
       946.412       1.04300       1.16900
       953.692       1.07700       1.19600
       961.085       1.14300       1.22000
       968.594       1.19800       1.24300
       976.220       1.24700       1.26500
       983.968       1.27900       1.28100
       991.840       1.28700       1.29500
       999.839       1.29200       1.29000
       1007.97       1.29600       1.28200
       1016.23       1.30100       1.26700
       1024.63       1.30500       1.25000
       1033.17       1.30800       1.23800
       1041.85       1.32300       1.23400
       1050.68       1.35600       1.23500
       1059.66       1.39000       1.24600
       1068.79       1.41500       1.25900
       1078.09       1.44000       1.27300
       1087.54       1.48100       1.28500
       1097.17       1.52000       1.29100
       1106.96       1.53700       1.29700
       1116.94       1.54300       1.29200
       1127.09       1.55500       1.28600
       1137.43       1.57500       1.27600
       1147.96       1.61500       1.26400
       1158.69       1.64300       1.25800
       1169.62       1.68400       1.26400
       1180.76       1.70400       1.26200
       1192.12       1.71600       1.25200
       1203.69       1.72100       1.23700
       1215.49       1.72500       1.22100
       1227.52       1.73000       1.20800
       1239.80       1.73500       1.19600
       1252.32       1.74100       1.19200
       1265.10       1.74900       1.17000
       1278.14       1.75700       1.16300
       1291.46       1.76600       1.16500
       1305.05       1.78200       1.17300
       1318.94       1.81100       1.18000
       1333.12       1.85700       1.18500
       1347.61       1.89800       1.19700
       1362.42       1.90800       1.21600
       1377.56       1.92500       1.23500
       1393.03       1.94600       1.26600
       1408.86       1.97500       1.21200
       1425.06       2.02100       1.21100
       1441.63       2.05100       1.21600
       1458.59       2.08900       1.22100
       1475.95       2.13900       1.22000
       1493.73       2.18100       1.21700
       1511.95       2.19600       1.20500
       1530.62       2.20900       1.18800
       1549.75       2.22200       1.16200
       1569.37       2.24000       1.13600
       1589.49       2.26500       1.12300
       1610.13       2.29400       1.12400
       1631.32       2.31400       1.12100
       1653.07       2.33400       1.11000
       1675.41       2.41800       1.10300
       1698.36       2.46800       1.11000
       1721.94       2.52300       1.11800
       1746.20       2.59200       1.11800
       1771.14       2.68200       1.10900
       1796.81       2.82000       1.09300
       1823.24       2.91600       1.05400
       1850.45       2.95200      0.926000
       1878.48       2.94700      0.755000
       1907.38       2.89100      0.590000
       1937.19       2.80100      0.427000
       1967.94       2.68200      0.276000
       1999.68       2.62800      0.186000
       2032.46       2.58300      0.249000
       2066.33       2.65200      0.276000
       2101.36       2.72600      0.129000
       2137.59       2.63200     0.0113000
       2175.09       2.48300   8.74000e-05
       2213.93       2.36000   7.67000e-05
       2254.18       2.31500   9.49000e-06
       2295.93       2.26600   2.29000e-06
       2339.25       2.23300   1.05000e-06
       2384.23       2.19900   7.61000e-07
       2430.98       2.17600       0.00000
       2479.60       2.15500       0.00000
       2530.20       2.12700       0.00000
       2582.92       2.11500       0.00000
       2637.87       2.10600       0.00000
       2695.22       2.09600       0.00000
       2755.11       2.08500       0.00000
       2817.73       2.07300       0.00000
       2883.26       2.06200       0.00000
       2951.90       2.05200       0.00000
       3023.90       2.04200       0.00000
       3099.50       2.03400       0.00000
       3178.97       2.02500       0.00000
       3262.63       2.01700       0.00000
       3350.81       2.01000       0.00000
       3443.89       2.00400       0.00000
       3542.29       1.99800       0.00000
       3646.47       1.99200       0.00000
       3756.97       1.98500       0.00000
       3874.38       1.97800       0.00000
       3999.35       1.97100       0.00000
       4132.67       1.96400       0.00000
       4275.17       1.95900       0.00000
       4427.86       1.95300       0.00000
       4591.85       1.94800       0.00000
       4768.46       1.94400       0.00000
       4959.20       1.94000       0.00000
       4999.19       1.93900       0.00000
       5123.14       1.93800       0.00000
       5165.83       1.93800       0.00000
       5253.39       1.93700       0.00000
       5390.44       1.93600       0.00000
       5413.97       1.93600       0.00000
       5559.64       1.93500       0.00000
       5635.45       1.93400       0.00000
       5713.36       1.93300       0.00000
       5875.83       1.93200       0.00000
       5903.81       1.93200       0.00000
       6047.81       1.93100       0.00000
       6199.00       1.93000       0.00000
       9998.39       1.90300       0.00000
       10204.1       1.90200       0.00000
       10418.5       1.90100       0.00000
       10642.1       1.90100       0.00000
       10865.9       1.90000       0.00000
       11109.3       1.90000       0.00000
       11363.9       1.89900       0.00000
       11630.4       1.89800       0.00000
       11909.7       1.89800       0.00000
       12190.8       1.89700       0.00000
       12499.2       1.89600       0.00000
       12819.8       1.89600       0.00000
       13157.2       1.89500       0.00000
       13512.8       1.89500       0.00000
       13888.2       1.89400       0.00000
       14285.1       1.89300       0.00000
       14705.3       1.89300       0.00000
       15150.9       1.89200       0.00000
       15624.4       1.89100       0.00000
       16128.5       1.89100       0.00000
       16666.2       1.89000       0.00000
       17241.0       1.88900       0.00000
       17856.8       1.88800       0.00000
       18518.3       1.88800       0.00000
       19230.7       1.88700       0.00000
       20000.0       1.88600       0.00000
       20408.2       1.88500       0.00000
       20833.5       1.88500       0.00000
       21276.8       1.88400       0.00000
       21739.4       1.88300       0.00000
       22222.6       1.88300       0.00000
       22727.8       1.88200       0.00000
       23256.4       1.88100       0.00000
       23810.3       1.88100       0.00000
       24391.1       1.88000       0.00000
       25001.0       1.87900       0.00000
       25642.2       1.87800       0.00000
       26317.1       1.87700       0.00000
       27028.6       1.87600       0.00000
       27779.5       1.87500       0.00000
       28573.4       1.87400       0.00000
       29001.2       1.87300       0.00000
       29414.0       1.87300       0.00000
       30298.1       1.87200       0.00000
       31245.0       1.87000       0.00000
       32252.9       1.86800       0.00000
       33328.0       1.86700       0.00000
       34477.2       1.86500       0.00000
       35708.5       1.86300       0.00000
       37031.1       1.86000       0.00000
       38455.3       1.85800       0.00000
       38999.7       1.85700       0.00000
       39993.5       1.85500       0.00000
       41659.9       1.85100       0.00000
       43471.2       1.84700   1.60000e-08
       45447.2       1.84300   3.70000e-08
       47611.4       1.83800   8.60000e-08
       49991.9       1.83200   2.10000e-07
       51273.8       1.83000   3.30000e-07
       52623.1       1.82000   5.20000e-07
       54045.3       1.82000   8.20000e-07
       55546.6       1.82000   1.30000e-06
       57133.6       1.81000   2.00000e-06
       58814.0       1.81000   3.20000e-06
       60596.3       1.80000   5.00000e-06
       62489.9       1.80000   8.00000e-06
       64505.7       1.79000   1.30000e-05
       66655.9       1.78000   2.20000e-05
       68954.4       1.77000   3.70000e-05
       71417.0       1.76000   6.30000e-05
       74062.1       1.75000   0.000100000
       76910.7       1.74000   0.000160000
       79987.1       1.72000   0.000270000
       83319.9       1.71000   0.000420000
       86942.5       1.69000   0.000700000
       90894.4       1.67000    0.00120000
       95222.7       1.64000    0.00230000
       99983.9       1.61000    0.00450000
       102041.       1.59000    0.00590000
       104185.       1.58000    0.00790000
       106421.       1.56000    0.00970000
       108659.       1.54000     0.0120000
       111093.       1.52000     0.0150000
       113639.       1.49000     0.0190000
       116304.       1.47000     0.0240000
       119097.       1.44000     0.0290000
       121908.       1.41000     0.0350000
       124980.       1.37000     0.0410000
       128211.       1.33000     0.0480000
       131614.       1.28000     0.0550000
       135202.       1.22000     0.0630000
       138835.       1.15000     0.0700000
       142834.       1.07000     0.0780000
       147070.      0.970000     0.0860000
       151565.      0.830000     0.0960000
       156146.      0.620000      0.120000
       161222.      0.220000      0.260000
       166640.      0.100000      0.780000
       172434.      0.150000       1.20000
       178646.      0.730000       1.80000
       185045.      0.660000      0.650000
       192217.      0.120000       1.20000
       199968.     0.0900000       1.70000
       203914.      0.150000       1.90000
       208370.      0.100000       2.10000
       212659.      0.150000       2.40000
       217509.      0.770000       2.30000
       222186.      0.150000       2.40000
       227070.      0.120000       2.70000
       232608.      0.130000       3.10000
       237965.      0.220000       3.60000
       244055.      0.280000       3.70000
       249960.      0.290000       4.40000
       256157.      0.500000       5.40000
       263227.       1.38000       7.40000
       270109.       8.44000       7.10000
       277982.       5.36000       1.40000
       285668.       1.94000       1.80000
       293791.       1.68000       6.60000
       303130.       7.48000       1.50000
       312292.       3.47000      0.860000
       322865.       1.53000       5.40000
       333280.       10.8800       2.90000
       344389.       6.89000      0.380000
       357291.       5.72000      0.170000
       370090.       5.10000      0.110000
       385031.       4.67000     0.0950000
       399936.       4.26000      0.150000
       416040.       4.65000      0.820000
       435018.       4.38000     0.0990000
       454139.       4.13000     0.0520000
       476846.       3.96000     0.0410000
       499919.       3.80000     0.0430000
       525339.       3.56000     0.0950000
       555964.       4.04000      0.470000
       587583.       4.09000      0.300000
       626162.       3.79000     0.0400000
       666559.       3.67000     0.0250000
       712529.       3.57000     0.0240000
       770062.       3.43000     0.0480000
       832081.       3.63000      0.800000
       911618.       3.67000     0.0410000
       999839.       3.57000     0.0160000
   1.10696e+06       3.51000     0.0100000
   1.24980e+06       3.48000    0.00740000
   1.42834e+06       3.45000    0.00580000
   1.66640e+06       3.43000    0.00460000
   1.99968e+06       3.41000    0.00370000
   2.49960e+06       3.40000    0.00280000
   3.33280e+06       3.39000    0.00200000
   4.99919e+06       3.38000    0.00140000
   6.62995e+06       3.38000    0.00100000
   9.99839e+06       3.38000   0.000670000
   1.99968e+07       3.38000   0.000330000
