;  Optical constants for cubin ZnTe
; 
;   taken from:
;
;   'Handbook of Optical Constants of Solids II', Ed. by Edward D. Palik,
;   Academic Press, Inc., 1991.
;   
;    Lambda (A)            n            k
;-----------------------------------------
       6.19900      0.999800   5.20000e-05
       6.70162      0.999800   7.20000e-05
       7.30153      0.999600   9.80000e-05
       7.70062      0.999600   0.000118000
       8.49760      0.999600   0.000164000
       9.09611      0.999600   0.000200000
       10.8091      0.999400   0.000360000
       12.0019      0.999400   0.000480000
       12.4992      0.999400   0.000360000
       14.4989      0.999200   0.000540000
       14.9988      0.999000   0.000580000
       15.1992      0.999000   0.000580000
       16.2981      0.999000   0.000640000
       17.0983      0.998800   0.000740000
       18.3974      0.998800    0.00102000
       19.9968      0.998800    0.00182000
       21.2987       1.00000    0.00244000
       21.9979       1.00120   0.000380000
       23.3969      0.999000   0.000480000
       29.9976      0.997600   0.000920000
       33.6994      0.996800    0.00124000
       39.9935      0.995400    0.00190000
       46.0892      0.994000    0.00260000
       49.9919      0.993200    0.00320000
       54.5927      0.992000    0.00380000
       59.9806      0.990400    0.00460000
       64.9790      0.989200    0.00540000
       70.0056      0.987600    0.00620000
       79.9871      0.983200    0.00780000
       82.6533       1.00000    0.00380000
       88.5571       1.00000    0.00600000
       91.8370       1.00000    0.00740000
       95.3692       1.00000    0.00980000
       99.1840       1.00000     0.0120000
       103.317       1.00000     0.0170000
       112.709       1.00000     0.0320000
       123.980       1.00000     0.0550000
       137.756       1.00000     0.0820000
       154.975       1.00000     0.0740000
       177.114       1.00000     0.0720000
       206.633       1.00000     0.0700000
       247.960       1.00000     0.0740000
       330.613       1.00000     0.0900000
       619.900      0.870000      0.500000
       826.533       1.00000      0.670000
       1033.17       1.17000      0.600000
       1127.09       1.13000      0.570000
       1239.80       1.07000      0.640000
       1377.56       1.00000      0.700000
       1549.75      0.900000      0.830000
       1653.07      0.970000       1.07000
       1771.14       1.20000       1.20000
       2066.33       1.00000       1.47000
       2254.18       1.43000       2.17000
       2479.60       2.00000       2.00000
       2695.22       2.20000       1.90000
       2883.26       2.27000       2.13000
       3099.50       2.80000       2.00000
       3220.26       2.73000       1.73000
       3443.89       3.00000       2.10000
       3542.29       3.47000       1.33000
       4132.67       3.40000      0.950000
       5687.16       3.10000       0.00000
       5689.77       3.11100       0.00000
       5769.20       3.08500     0.0900000
       5790.75       3.07900     0.0900000
       5889.79       3.05400     0.0900000
       6000.97       3.03500     0.0900000
       6158.97       3.00500     0.0800000
       6497.90       2.96200     0.0700000
       7000.56       2.91200     0.0600000
       7250.29       2.89300     0.0600000
       7500.30       2.87900     0.0500000
       7700.62       2.86600       0.00000
       7998.71       2.85300       0.00000
       9998.39       2.79000       0.00000
       12001.9       2.75800       0.00000
       13999.5       2.74100       0.00000
       14998.8       2.73400       0.00000
       15130.6       2.73400       0.00000
       19996.8       2.73000   0.000200000
       29997.6       2.69000   0.000400000
       39993.5       2.68000   0.000800000
       49991.9       2.67000    0.00160000
       59980.6       2.67000    0.00200000
       70005.6       2.66000    0.00300000
       88179.2       2.64000       0.00000
       107809.       2.63000       0.00000
       126899.       2.63000       0.00000
       149500.       2.62000       0.00000
       190504.       2.59000       0.00000
       231998.       2.56000     0.0100000
       274231.       2.53000     0.0200000
       318961.       2.49000     0.0200000
       345252.       2.47000     0.0300000
       349633.       2.26000     0.0300000
       384553.       2.19000     0.0300000
       399936.       2.07000     0.0900000
       425463.       1.92000      0.150000
       444373.       1.90000      0.180000
       454472.       1.68000      0.110000
       476114.      0.750000      0.180000
       499919.      0.700000       1.00000
       526231.       1.10000       1.90000
       540453.       1.46000       3.10000
       555466.       3.72000       3.60000
       561758.       4.00000       3.00000
       571336.       4.94000       2.30000
       598937.       3.95000      0.600000
       666559.       3.29000      0.400000
       699267.       3.14000      0.400000
       799871.       3.07000      0.300000
       901018.       3.06000      0.300000
       999839.       3.05000      0.300000
   1.11093e+06       3.04000      0.300000
   1.24992e+06       3.02000      0.200000
   1.49248e+06       3.01000      0.200000
   2.00000e+06       3.20000     0.0200000
   2.50010e+06       3.18000     0.0200000
   3.00048e+06       3.17000     0.0170000
   3.99935e+06       3.16000       0.00000
