;  Optical constants for Zr, single crystal w/ E perp. c
; 
;   taken from:
;
;   J. H. Weaver, C. Krafka, D. W. Lynch, and E. E. Koch, 'Physik Daten,
;   Physics Data: Optical Properties of Metals', Vol. 18-1 and 18-2,
;   Fach-information zentrum, Karlsruhe, 1981.
;   
;    Lambda (A)            n            k
;-----------------------------------------
   499.92    1.03	.62
   503.98    1.04	.62
   508.11    1.05	.62
   512.31    1.06	.63
   516.58    1.07	.63
   520.92    1.08	.63
   525.34    1.10	.63
   529.83    1.11	.63
   534.40    1.13	.63
   539.04    1.14	.63
   543.77    1.15	.63
   548.58    1.17	.63
   553.48    1.19	.62
   558.47    1.20	.62
   563.55    1.22	.61
   568.72    1.23	.60
   573.98    1.25	.59
   579.35    1.27	.57
   584.81    1.28	.56
   607.75    1.31	.48
   613.76    1.31	.46
   619.90    1.31	.43
   626.16    1.30	.41
   632.55    1.29	.39
   639.07    1.28	.37
   645.73    1.27	.36
   652.53    1.26	.34
   659.47    1.24	.33
   666.56    1.22	.32
   673.80    1.20	.31
   681.21    1.18	.30
   688.78    1.16	.30
   696.52    1.14	.30
   704.43    1.12	.30
   712.53    1.10	.30
   720.81    1.07	.31
   729.29    1.05	.32
   737.98    1.03	.33
   746.87    1.01	.34
   755.98    1.00	.36
   765.31    .98	.37
   774.88    .97	.39
   784.68    .95	.41
   794.74    .94	.43
   805.06    .93	.45
   815.66    .92	.48
   826.53    .90	.51
   837.70    .89	.54
   849.18    .89	.58
   860.97    .90	.61
   873.10    .91	.65
   885.57    .92	.68
   898.41    .94	.70
   911.62    .95	.73
   925.22    .97	.75
   939.24    .99	.77 
   953.69    1.00	.79	
   968.59    1.02	.81
   983.97    1.04	.83
   999.84    1.06	.84
   1016.2    1.07	.86
   1033.2    1.09	.88
   1050.7    1.10	.90
   1068.8    1.12	.93
   1087.5    1.15	.95
   1107.0    1.17	.98
   1127.1    1.21	1.01
   1148.0    1.25	1.03
   1169.6    1.31	1.06
   1180.8    1.34	1.06
   1192.1    1.37	1.07
   1215.5    1.44	1.05
   1239.8    1.50	1.03
   1318.9    1.62	.93
