;  Optical constants for polycrystalline Zr
; 
;   taken from:
;
;   J. H. Weaver, C. Krafka, D. W. Lynch, and E. E. Koch, 'Physik Daten,
;   Physics Data: Optical Properties of Metals', Vol. 18-1 and 18-2,
;   Fach-information zentrum, Karlsruhe, 1981.
;   
;    Lambda (A)            n            k
;-----------------------------------------
   413.27      0.82000      0.64000    
   416.04      0.82000      0.64000    
   418.85      0.82000      0.64000    
   421.70      0.81000      0.64000    
   424.59      0.81000      0.64000    
   427.52      0.81000      0.64000    
   430.49      0.82000      0.64000    
   433.50      0.82000      0.64000    
   436.55      0.82000      0.64000    
   439.65      0.82000      0.64000    
   442.79      0.83000      0.64000    
   445.97      0.83000      0.64000    
   449.20      0.84000      0.65000    
   452.48      0.85000      0.65000    
   455.81      0.86000      0.66000    
   459.19      0.88000      0.66000    
   462.61      0.89000      0.67000    
   466.09      0.91000      0.67000    
   469.62      0.92000      0.68000    
   473.21      0.93000      0.68000    
   476.85      0.95000      0.69000    
   480.54      0.97000      0.69000    
   484.30      0.98000      0.70000    
   488.11      0.99000      0.70000    
   491.98       1.0000      0.71000    
   495.92       1.0100      0.71000    
   499.92       1.0200      0.71000    
   503.98       1.0300      0.72000    
   508.11       1.0400      0.72000    
   512.31       1.0500      0.73000    
   516.58       1.0600      0.73000    
   520.92       1.0800      0.73000    
   525.34       1.0900      0.74000    
   529.83       1.1000      0.74000    
   534.40       1.1200      0.75000    
   539.04       1.1300      0.75000    
   543.77       1.1500      0.76000    
   548.58       1.1600      0.76000    
   553.48       1.1800      0.77000    
   558.47       1.2000      0.77000    
   563.55       1.2100      0.78000    
   568.72       1.2300      0.78000    
   573.98       1.2400      0.79000    
   579.35       1.2600      0.79000    
   584.81       1.2700      0.80000    
   590.38       1.2800      0.80000    
   596.06       1.2900      0.80000    
   601.84       1.3000      0.81000    
   607.75       1.3000      0.81000    
   613.76       1.3000      0.81000    
   619.90       1.3000      0.81000    
   626.16       1.2900      0.80000    
   632.55       1.2800      0.80000    
   639.07       1.2700      0.80000    
   645.73       1.2600      0.79000    
   652.53       1.2400      0.79000    
   659.47       1.2300      0.78000    
   666.56       1.2100      0.78000    
   673.80       1.1900      0.77000    
   681.21       1.1700      0.76000    
   688.78       1.1500      0.76000    
   696.52       1.1300      0.75000    
   704.43       1.1100      0.74000    
   712.53       1.0900      0.74000    
   720.81       1.0600      0.73000    
   729.29       1.0400      0.72000    
   737.98       1.0200      0.72000    
   746.87       1.0100      0.71000    
   755.98      0.99000      0.70000    
   765.31      0.98000      0.70000    
   774.88      0.96000      0.69000    
   784.68      0.95000      0.69000    
   794.74      0.94000      0.68000    
   805.06      0.92000      0.68000    
   815.66      0.91000      0.67000    
   826.53      0.90000      0.67000    
   837.70      0.89000      0.67000    
   849.18      0.89000      0.67000    
   860.97      0.91000      0.67000    
   873.10      0.92000      0.68000    
   885.57      0.93000      0.68000    
   898.41      0.95000      0.69000    
   911.62      0.96000      0.69000    
   925.22      0.98000      0.70000    
   939.24       1.0000      0.71000    
   953.69       1.0100      0.71000    
   968.59       1.0300      0.72000    
   983.97       1.0500      0.72000    
   999.84       1.0600      0.73000    
   1016.2       1.0800      0.73000    
   1033.2       1.0900      0.74000    
   1050.7       1.1100      0.74000    
   1068.8       1.1300      0.75000    
   1087.5       1.1600      0.76000    
   1107.0       1.1900      0.77000    
   1127.1       1.2300      0.78000    
   1148.0       1.2800      0.80000    
   1169.6       1.3200      0.81000    
   1192.1       1.3500      0.82000    
   1215.5       1.4200      0.84000    
   1239.8       1.4700      0.86000    
   1265.1       1.5200      0.87000    
   1291.5       1.5700      0.89000    
   1318.9       1.6000      0.89000    
   1347.6       1.6300      0.90000    
   1377.6       1.6500      0.91000    
