;  Atomic scattering factors for As.
;   
;  Concatenation of data from CXRO <http://www-cxro.lbl.gov>
;  and LLNL <http://www-phys.llnl.gov/V_Div/scattering/asf.html>
;  
;  E (eV) f1 f2
;---------------
       10.000000       -9999.0000        4.6259600
       10.161700       -9999.0000        4.6774200
       10.326100       -9999.0000        4.7294500
       10.493100       -9999.0000        4.7820600
       10.662800       -9999.0000        4.8352500
       10.835300       -9999.0000        4.8890400
       11.010600       -9999.0000        4.9434200
       11.188600       -9999.0000        4.9984100
       11.369600       -9999.0000        5.0540100
       11.553500       -9999.0000        5.1102300
       11.740400       -9999.0000        5.1670800
       11.930300       -9999.0000        5.2245600
       12.123200       -9999.0000        5.2826700
       12.319300       -9999.0000        5.3193200
       12.518600       -9999.0000        5.3154100
       12.721000       -9999.0000        5.3115000
       12.926800       -9999.0000        5.3075900
       13.135900       -9999.0000        5.3036900
       13.348300       -9999.0000        5.2997800
       13.564200       -9999.0000        5.2958900
       13.783600       -9999.0000        5.2919900
       14.006600       -9999.0000        5.2875100
       14.233100       -9999.0000        5.2808000
       14.463300       -9999.0000        5.2741000
       14.697300       -9999.0000        5.2674100
       14.935000       -9999.0000        5.2607200
       15.176500       -9999.0000        5.2540400
       15.422000       -9999.0000        5.2473800
       15.671400       -9999.0000        5.2407200
       15.924900       -9999.0000        5.2340700
       16.182500       -9999.0000        5.2274200
       16.444200       -9999.0000        5.1550700
       16.710200       -9999.0000        5.0654600
       16.980500       -9999.0000        4.9774100
       17.255100       -9999.0000        4.8909000
       17.534200       -9999.0000        4.8058800
       17.817800       -9999.0000        4.7223500
       18.106000       -9999.0000        4.6402600
       18.398900       -9999.0000        4.5371400
       18.696400       -9999.0000        4.3767900
       18.998800       -9999.0000        4.2221000
       19.306100       -9999.0000        4.0728800
       19.618400       -9999.0000        3.9289300
       19.935700       -9999.0000        3.7900700
       20.258200       -9999.0000        3.6561200
       20.585800       -9999.0000        3.5232900
       20.918800       -9999.0000        3.3939300
       21.257100       -9999.0000        3.2693200
       21.600900       -9999.0000        3.1492900
       21.950300       -9999.0000        3.0336600
       22.305300       -9999.0000        2.8800900
       22.666100       -9999.0000        2.7139900
       23.032700       -9999.0000        2.5574700
       23.405300       -9999.0000        2.4099800
       23.783800       -9999.0000        2.2709900
       24.168500       -9999.0000        2.1400200
       24.559400       -9999.0000        2.0133500
       24.956600       -9999.0000        1.8914900
       25.360300       -9999.0000        1.7770200
       25.770500       -9999.0000        1.6694700
       26.187300       -9999.0000        1.5684300
       26.610900       -9999.0000        1.4735100
       27.041300       -9999.0000        1.3772300
       27.478600       -9999.0000        1.2820200
       27.923100       -9999.0000        1.1934000
       28.374700       -9999.0000        1.1109000
       28.833700       -9999.0000        1.0341100
       29.300000        6.5848000       0.96831900
       29.773900        6.5014900       0.91616600
       30.255500        6.4217500       0.86682300
       30.744900        6.3427000       0.82013800
       31.242100        6.2638100       0.77596700
       31.747500        6.1864300       0.73417500
       32.260900        6.1080500       0.68455000
       32.782700        6.0169200       0.63564200
       33.313000        5.9127100       0.59034700
       33.851800        5.8060500       0.56790700
       34.399300        5.7025900       0.54631900
       34.955700        5.5938800       0.52757900
       35.521100        5.4840000       0.51798000
       36.095600        5.3696700       0.50855600
       36.679400        5.2429200       0.50896600
       37.272700        5.1149700       0.51703500
       37.875500        4.9751800       0.53905700
       38.488200        4.8270700       0.56978600
       39.110700        4.6454800       0.64375800
       39.743200        4.5016100       0.76620300
       40.386100        4.3874300       0.91194000
       41.039300        4.3130500        1.0778500
       41.703100        4.2857000        1.2612300
       42.377600        4.3358200        1.3961100
       43.063000        4.3922900        1.4992800
       43.759500        4.4465600        1.5124300
       44.467300        4.4569700        1.5171400
       45.186500        4.4475800        1.5218700
       45.917400        4.4283600        1.5231600
       46.660000        4.3914900        1.5176500
       47.414700        4.3376900        1.5121600
       48.181600        4.2622800        1.5066900
       48.960900        4.1465500        1.5229100
       49.752800        4.0485900        1.5770700
       50.557600        3.9604700        1.6331600
       51.375300        3.8696200        1.6912500
       52.206200        3.7653000        1.7608900
       53.050600        3.6716000        1.8497500
       53.908700        3.5849100        1.9430800
       54.780600        3.5009100        2.0411200
       55.666700        3.4181200        2.1441100
       56.567000        3.3337100        2.2555300
       57.482000        3.2552600        2.3775000
       58.411700        3.1818600        2.5060600
       59.356400        3.1134500        2.6415700
       60.316500        3.0514900        2.7844100
       61.292100        3.0001000        2.9349800
       62.283400        2.9556500        3.0790000
       63.290800        2.9105300        3.2277900
       64.314500        2.8689800        3.3837800
       65.354700        2.8335300        3.5473000
       66.411800        2.8082100        3.7187200
       67.485900        2.8028500        3.8984400
       68.577500        2.8123700        4.0515300
       69.686700        2.8093200        4.1994900
       70.813800        2.8033800        4.3528400
       71.959100        2.7987800        4.5118000
       73.123000        2.7991800        4.6765700
       74.305700        2.8123300        4.8461000
       75.507600        2.8260300        4.9997100
       76.728900        2.8348800        5.1581900
       77.969900        2.8437800        5.3216900
       79.231000        2.8545200        5.4903800
       80.512500        2.8684000        5.6644100
       81.814700        2.8865400        5.8439600
       83.138000        2.9103600        6.0292000
       84.482700        2.9417200        6.2203100
       85.849100        2.9859200        6.4174800
       87.237700        3.0510900        6.6027500
       88.648700        3.1071200        6.7777400
       90.082500        3.1596500        6.9573600
       91.539500        3.2148900        7.1417500
       93.020100        3.2745700        7.3310200
       94.524600        3.3407000        7.5253000
       96.053500        3.4159000        7.7247300
       97.607100        3.5076700        7.9294600
       99.185800        3.6249300        8.1123100
       100.79000        3.7267500        8.2785300
       102.42000        3.8201000        8.4481500
       104.07700        3.9132900        8.6212600
       105.76000        4.0079600        8.7979000
       107.47100        4.1057300        8.9781700
       109.20900        4.2086900        9.1621200
       110.97500        4.3186000        9.3451800
       112.77000        4.4292400        9.5279900
       114.59400        4.5430800        9.7143900
       116.44800        4.6618100        9.9044200
       118.33100        4.7869400        10.098200
       120.24500        4.9203400        10.295700
       122.19000        5.0669600        10.497100
       124.16600        5.2341800        10.684800
       126.17500        5.3936200        10.860400
       128.21500        5.5495800        11.038800
       130.28900        5.7085800        11.220200
       132.39700        5.8721400        11.404500
       134.53800        6.0417300        11.591900
       136.71400        6.2187800        11.782400
       138.92500        6.4050900        11.976000
       141.17200        6.6029600        12.172700
       143.45600        6.8167700        12.372800
       145.77600        7.0611900        12.576100
       148.13400        7.3405900        12.735100
       150.53000        7.5910900        12.858900
       152.96400        7.8284900        12.984000
       155.43900        8.0617800        13.110300
       157.95300        8.2947100        13.237800
       160.50700        8.5297700        13.366600
       163.10300        8.7698000        13.496500
       165.74200        9.0250300        13.624100
       168.42200        9.2776100        13.734300
       171.14600        9.5261600        13.845400
       173.91500        9.7764300        13.957400
       176.72700        10.030500        14.070300
       179.58600        10.290200        14.184100
       182.49100        10.557700        14.298800
       185.44200        10.836900        14.414500
       188.44200        11.154200        14.531100
       191.48900        11.449200        14.571500
       194.58700        11.720800        14.648600
       197.73400        11.993400        14.740700
       200.93200        12.290300        14.845400
       204.18200        12.610700        14.951100
       207.48500        12.962600        15.057400
       210.84000        13.385000        15.164300
       214.25100        13.816700        15.128000
       217.71600        14.217900        15.061200
       221.23700        14.565700        14.970500
       224.81600        14.885800        14.880500
       228.45200        15.188000        14.791000
       232.14700        15.476400        14.701900
       235.90200        15.754100        14.613400
       239.71700        16.023000        14.525600
       243.59500        16.285000        14.438400
       247.53500        16.541200        14.351500
       251.53800        16.792600        14.265100
       255.60700        17.040300        14.179100
       259.74100        17.285600        14.093900
       263.94200        17.530200        14.009200
       268.21100        17.776200        13.924900
       272.54900        18.028600        13.841000
       276.95700        18.300900        13.737700
       281.43700        18.558500        13.610400
       285.98900        18.796000        13.468300
       290.61500        19.017400        13.325500
       295.31500        19.226500        13.184600
       300.09200        19.426800        13.044800
       304.94500        19.619300        12.906600
       309.87800        19.805400        12.770000
       314.89000        19.985700        12.634600
       319.98300        20.160600        12.500600
       325.15800        20.330600        12.368000
       330.41800        20.496400        12.237300
       335.76200        20.658700        12.107900
       341.19200        20.817600        11.979600
       346.71100        20.973300        11.852600
       352.31900        21.126300        11.727000
       358.01700        21.277400        11.602900
       363.80800        21.426800        11.479800
       369.69200        21.574900        11.358000
       375.67200        21.723200        11.237700
       381.74800        21.873700        11.118600
       387.92200        22.030900        10.997000
       394.19700        22.194500        10.868600
       400.57300        22.355200        10.716200
       407.05200        22.496500        10.556000
       413.63500        22.625300        10.397800
       420.32600        22.745600        10.242200
       427.12400        22.859200        10.089000
       434.03200        22.968000        9.9384600
       441.05200        23.072600        9.7896600
       448.18600        23.175900        9.6420700
       455.43500        23.274500        9.4926100
       462.80200        23.367900        9.3420400
       470.28700        23.455000        9.1919700
       477.89400        23.535900        9.0439500
       485.62300        23.612200        8.8985500
       493.47800        23.684700        8.7556000
       501.45900        23.753900        8.6151000
       509.57000        23.820500        8.4767800
       517.81200        23.885900        8.3400500
       526.18700        23.949500        8.2033100
       534.69800        24.010100        8.0647600
       543.34600        24.065300        7.9265500
       552.13400        24.118400        7.7907600
       561.06500        24.168600        7.6504900
       570.13900        24.210100        7.5099200
       579.36100        24.245300        7.3743300
       588.73200        24.276800        7.2420600
       598.25400        24.305700        7.1127000
       607.93000        24.332000        6.9856200
       617.76300        24.356400        6.8608200
       627.75500        24.380900        6.7377800
       637.90800        24.404700        6.6112600
       648.22600        24.423900        6.4787500
       658.71100        24.430600        6.3434600
       669.36500        24.423800        6.2109700
       680.19100        24.405600        6.0953200
       691.19300        24.390800        5.9925800
       702.37200        24.387200        5.8942500
       713.73300        24.386300        5.7882400
       725.27700        24.378000        5.6778100
       737.00800        24.364000        5.5695900
       748.92800        24.346100        5.4633900
       761.04200        24.324900        5.3591200
       773.35100        24.301200        5.2558700
       785.85900        24.274000        5.1515700
       798.57000        24.240200        5.0468400
       811.48600        24.200400        4.9442500
       824.61100        24.155300        4.8437100
       837.94900        24.105100        4.7452000
       851.50200        24.049500        4.6482100
       865.27400        23.988400        4.5527600
       879.26900        23.921000        4.4588800
       893.49100        23.847200        4.3668700
       907.94300        23.766700        4.2768100
       922.62800        23.679800        4.1886700
       937.55100        23.585000        4.1005600
       952.71500        23.481300        4.0139500
       968.12400        23.367700        3.9288600
       983.78300        23.243500        3.8455100
       999.69500        23.107700        3.7640200
       1015.8600        22.959100        3.6843700
       1032.2900        22.797000        3.6069800
       1048.9900        22.619300        3.5303600
       1065.9600        22.422500        3.4544600
       1083.2000        22.204000        3.3802900
       1100.7200        21.960100        3.3076700
       1118.5200        21.686300        3.2365600
       1136.6100        21.376400        3.1670800
       1155.0000        21.022100        3.0990800
       1173.6800        20.611800        3.0325400
       1192.6600        20.128900        2.9672800
       1211.9500        19.547900        2.9034900
       1231.5500        18.828100        2.8411700
       1251.4700        17.896900        2.7803900
       1271.7200        16.606000        2.7211000
       1292.2900        14.568200        2.6633200
       1313.1900        9.9424000        2.6067600
       1323.5000       -10.327700        2.5796300
       1323.7000       -10.319100        16.431100
       1334.4300        10.490000        16.272500
       1356.0100        15.537100        15.961800
       1377.9400        17.955300        15.656900
       1400.2300        19.559900        15.357800
       1422.8800        20.745600        15.064400
       1445.8900        21.659600        14.776800
       1469.2800        22.359200        14.495100
       1493.0400        22.832100        14.219300
       1517.1900        22.798200        13.948800
       1526.9000        20.285900        13.842600
       1527.1000        20.292500        15.754600
       1541.7300        23.730900        15.551800
       1566.6700        24.915700        15.216400
       1592.0100        25.731000        14.888100
       1617.7600        26.396900        14.566900
       1643.9200        26.971200        14.252700
       1670.5100        27.480400        13.945200
       1697.5300        27.940100        13.644300
       1724.9900        28.363700        13.350000
       1752.8900        28.752800        13.048700
       1781.2400        29.107100        12.749700
       1810.0500        29.428400        12.454100
       1839.3200        29.722200        12.165300
       1869.0700        29.992600        11.883300
       1899.3000        30.242700        11.608000
       1930.0200        30.474500        11.338700
       1961.2400        30.690100        11.075800
       1992.9600        30.889200        10.819200
       2025.2000        31.081400        10.574400
       2057.9500        31.263600        10.322300
       2091.2400        31.430500        10.074200
       2125.0600        31.584100        9.8308900
       2159.4300        31.726600        9.5926300
       2194.3600        31.858500        9.3585700
       2229.8500        31.980800        9.1295700
       2265.9200        32.094200        8.9051500
       2302.5700        32.199300        8.6852600
       2339.8100        32.296200        8.4697500
       2377.6600        32.385800        8.2591800
       2416.1100        32.468600        8.0528900
       2455.1900        32.544900        7.8510000
       2494.9000        32.615100        7.6535000
       2535.2600        32.679500        7.4601400
       2576.2600        32.738300        7.2711500
       2617.9300        32.792000        7.0863300
       2660.2700        32.840700        6.9056700
       2703.3000        32.885100        6.7295000
       2747.0300        32.925300        6.5569600
       2791.4600        32.961500        6.3885200
       2836.6100        32.993600        6.2236000
       2882.4900        33.022200        6.0632000
       2929.1100        33.047600        5.9060600
       2976.4800        33.069800        5.7528200
       3024.6300        33.088800        5.6028800
       3073.5500        33.105000        5.4571100
       3123.2600        33.118700        5.3143600
       3173.7800        33.129800        5.1752200
       3225.1100        33.138600        5.0394500
       3277.2700        33.145100        4.9069900
       3330.2800        33.149600        4.7777200
       3384.1500        33.152100        4.6516400
       3438.8800        33.152700        4.5287100
       3494.5000        33.151600        4.4088100
       3551.0200        33.148800        4.2918900
       3608.4600        33.144500        4.1778500
       3666.8200        33.138800        4.0667200
       3726.1300        33.131700        3.9584100
       3786.4000        33.123400        3.8527500
       3847.6400        33.113800        3.7498200
       3909.8700        33.103200        3.6494900
       3973.1100        33.091500        3.5516900
       4037.3800        33.078800        3.4564200
       4102.6800        33.065200        3.3635800
       4169.0300        33.050700        3.2731500
       4236.4600        33.035500        3.1850300
       4304.9800        33.019500        3.0991500
       4374.6200        33.002800        3.0155100
       4445.3700        32.985400        2.9340500
       4517.2700        32.967400        2.8547100
       4590.3300        32.948800        2.7774400
       4664.5800        32.929700        2.7021800
       4740.0300        32.910100        2.6288200
       4816.6900        32.890000        2.5574500
       4894.6000        32.869400        2.4879600
       4973.7700        32.848400        2.4202700
       5054.2100        32.827100        2.3544000
       5135.9600        32.805400        2.2902400
       5219.0300        32.783300        2.2277700
       5303.4400        32.760900        2.1668900
       5389.2200        32.738100        2.1076900
       5476.3900        32.715000        2.0500800
       5564.9700        32.691600        1.9939600
       5654.9800        32.668000        1.9392900
       5746.4400        32.644000        1.8861200
       5839.3900        32.619700        1.8343700
       5933.8300        32.595200        1.7839900
       6029.8100        32.570300        1.7349100
       6127.3300        32.545200        1.6872700
       6226.4400        32.519800        1.6408000
       6327.1500        32.494000        1.5955900
       6429.4800        32.468000        1.5516000
       6533.4800        32.441600        1.5087200
       6639.1500        32.414900        1.4670300
       6746.5400        32.387700        1.4264700
       6855.6500        32.360200        1.3869800
       6966.5400        32.332300        1.3486100
       7079.2200        32.303900        1.3111700
       7193.7200        32.275000        1.2747900
       7310.0700        32.245500        1.2393600
       7428.3100        32.215400        1.2049000
       7548.4500        32.184700        1.1713600
       7670.5400        32.153300        1.1387100
       7794.6100        32.121100        1.1069500
       7920.6800        32.088000        1.0760400
       8048.7900        32.053900        1.0459500
       8178.9800        32.018800        1.0166700
       8311.2600        31.982400       0.98819300
       8445.6900        31.944700       0.96047400
       8582.2900        31.905500       0.93347400
       8721.1100        31.864500       0.90721800
       8862.1600        31.821600       0.88166500
       9005.5000        31.776500       0.85680300
       9151.1600        31.728900       0.83260000
       9299.1700        31.678200       0.80904600
       9449.5800        31.624200       0.78611300
       9602.4200        31.566200       0.76380800
       9757.7300        31.503400       0.74209300
       9915.5500        31.435000       0.72097200
       10075.900        31.359700       0.70040300
       10238.900        31.276000       0.68038300
       10404.500        31.181600       0.66089800
       10572.800        31.073600       0.64193200
       10743.800        30.947500       0.62347200
       10917.600        30.796300       0.60550400
       11094.200        30.608700       0.58801400
       11273.600        30.363500       0.57098900
       11455.900        30.014600       0.55441700
       11641.200        29.426800       0.53828500
       11829.500        27.570800       0.52258000
       11866.600        21.238200       0.51957100
       11866.800        21.238500        3.8929500
       12020.800        29.200700        3.8178900
       12215.300        30.134700        3.7265400
       12412.800        30.659300        3.6367100
       12613.600        31.027900        3.5484000
       12817.600        31.312100        3.4616400
       13025.000        31.542800        3.3764200
       13235.600        31.736100        3.2927700
       13449.700        31.901700        3.2106900
       13667.200        32.045800        3.1301600
       13888.300        32.172600        3.0512000
       14112.900        32.285200        2.9738000
       14341.200        32.385900        2.8979600
       14573.100        32.476400        2.8236600
       14808.900        32.558100        2.7509000
       15048.400        32.632100        2.6796600
       15291.800        32.699400        2.6099500
       15539.100        32.760600        2.5417300
       15790.400        32.816500        2.4750000
       16045.800        32.867500        2.4097400
       16305.400        32.914000        2.3459400
       16569.100        32.956600        2.2835800
       16837.100        32.995600        2.2226300
       17109.400        33.031200        2.1630800
       17386.100        33.063800        2.1049200
       17667.400        33.093600        2.0481100
       17953.100        33.120700        1.9926400
       18243.500        33.145500        1.9384900
       18538.600        33.168100        1.8856400
       18838.400        33.188600        1.8340700
       19143.100        33.207200        1.7837500
       19452.700        33.224100        1.7346600
       19767.400        33.239300        1.6867800
       20087.100        33.253000        1.6400800
       20412.000        33.265200        1.5945500
       20742.100        33.276200        1.5501700
       21077.600        33.285900        1.5069000
       21418.500        33.294500        1.4647400
       21765.000        33.301900        1.4236400
       22117.000        33.308400        1.3836100
       22474.700        33.314000        1.3446000
       22838.200        33.318700        1.3066100
       23207.600        33.322500        1.2696000
       23583.000        33.325700        1.2335600
       23964.400        33.328100        1.1984700
       24352.000        33.329800        1.1643000
       24745.900        33.331000        1.1310400
       25146.200        33.331600        1.0986600
       25552.900        33.331600        1.0671500
       25966.200        33.331200        1.0364800
       26386.100        33.330300        1.0066400
       26812.900        33.329000       0.97759600
       27246.600        33.327300       0.94934300
       27687.300        33.325200       0.92185700
       28135.100        33.322800       0.89512000
       28590.200        33.320100       0.86911400
       29052.600        33.317100       0.84382200
       29522.500        33.313800       0.81922500
       30000.000        33.310300       0.79530700
       30400.000        33.286300       0.75718500
       30800.000        33.283400       0.73916500
       31200.000        33.280500       0.72179800
       31500.000        33.278400       0.70918200
       31900.000        33.275200       0.69283400
       32300.000        33.272000       0.67705900
       32600.000        33.269600       0.66558700
       33000.000        33.266500       0.65075300
       33400.000        33.263200       0.63638800
       33800.000        33.259900       0.62250600
       34100.000        33.257400       0.61239700
       34500.000        33.254100       0.59930800
       34900.000        33.250800       0.58664500
       35300.000        33.247500       0.57429400
       35700.000        33.244200       0.56230700
       36030.000        33.241500       0.55270400
       36500.000        33.237700       0.53945600
       37000.000        33.233500       0.52588900
       37500.000        33.229400       0.51283900
       38000.000        33.225300       0.50028000
       38500.000        33.221300       0.48808500
       39000.000        33.217300       0.47633900
       39500.000        33.213300       0.46502100
       40000.000        33.209300       0.45410800
       40800.000        33.203100       0.43738300
       41500.000        33.197700       0.42350800
       42300.000        33.191700       0.40845800
       43000.000        33.186500       0.39595000
       43800.000        33.180800       0.38226500
       44500.000        33.175800       0.37087300
       45300.000        33.170300       0.35844600
       46000.000        33.165500       0.34804200
       46500.000        33.162200       0.34088900
       47000.000        33.158900       0.33395700
       47500.000        33.155600       0.32723800
       48000.000        33.152300       0.32072200
       48500.000        33.149200       0.31438500
       49000.000        33.146100       0.30823700
       49500.000        33.143000       0.30226900
       50000.000        33.140000       0.29647600
       50500.000        33.137100       0.29081100
       51000.000        33.134200       0.28530900
       51500.000        33.131300       0.27996200
       52000.000        33.128400       0.27476700
       52500.000        33.125600       0.26971600
       53000.000        33.122900       0.26480400
       53500.000        33.120100       0.26002700
       54000.000        33.117400       0.25537900
       55000.000        33.112300       0.24645400
       56000.000        33.107200       0.23793400
       56800.000        33.103300       0.23143400
       57530.000        33.099700       0.22573500
       58000.000        33.097500       0.22217700
       58500.000        33.095200       0.21848400
       59540.000        33.090400       0.21109400
       59800.000        33.089300       0.20930600
       60000.000        33.088400       0.20794600
       60800.000        33.085000       0.20260300
       61500.000        33.082000       0.19809600
       62300.000        33.078700       0.19312900
       63000.000        33.075800       0.18893400
       64000.000        33.071900       0.18317700
       65000.000        33.068000       0.17768000
       65900.000        33.064700       0.17291800
       66830.000        33.061300       0.16819600
       67400.000        33.059300       0.16539800
       68000.000        33.057100       0.16252700
       69000.000        33.053800       0.15790600
       70000.000        33.050400       0.15348100
       71000.000        33.047200       0.14921900
       72000.000        33.044100       0.14513200
       72800.000        33.041700       0.14198300
       73500.000        33.039600       0.13931100
       74200.000        33.037600       0.13671300
       74960.000        33.035300       0.13397500
       75500.000        33.033800       0.13207000
       76000.000        33.032400       0.13034000
       77110.000        33.029400       0.12662100
       77900.000        33.027300       0.12407000
       78600.000        33.025500       0.12187300
       79300.000        33.023700       0.11973500
       80000.000        33.021900       0.11765200
       80800.000        33.020000       0.11533000
       81500.000        33.018400       0.11335400
       82300.000        33.016500       0.11115700
       83000.000        33.014800       0.10928700
       84000.000        33.012600       0.10669600
       85000.000        33.010300       0.10419600
       86500.000        33.007200       0.10060700
       88000.000        33.004000      0.097200900
       89000.000        33.002100      0.095025100
       90000.000        33.000100      0.092921600
       91500.000        32.997300      0.089882700
       93000.000        32.994600      0.086990200
       94000.000        32.992800      0.085138700
       95000.000        32.991100      0.083345500
       96500.000        32.988600      0.080760700
       98000.000        32.986200      0.078294100
       99000.000        32.984600      0.076712000
       99500.000        32.983900      0.075938900
       100000.00        32.983100      0.075177400
