;  Atomic scattering factors for B.
;   
;  Concatenation of data from CXRO <http://www-cxro.lbl.gov>
;  and LLNL <http://www-phys.llnl.gov/V_Div/scattering/asf.html>
;  
;  E (eV) f1 f2
;---------------
       10.000000       -9999.0000        1.4893300
       10.161700       -9999.0000        1.4808400
       10.326100       -9999.0000        1.4724000
       10.493100       -9999.0000        1.4640100
       10.662800       -9999.0000        1.4556700
       10.835300       -9999.0000        1.4473800
       11.010600       -9999.0000        1.4391300
       11.188600       -9999.0000        1.4309300
       11.369600       -9999.0000        1.4227800
       11.553500       -9999.0000        1.4146700
       11.740400       -9999.0000        1.4066100
       11.930300       -9999.0000        1.3986000
       12.123200       -9999.0000        1.3906300
       12.319300       -9999.0000        1.3827100
       12.518600       -9999.0000        1.3748300
       12.721000       -9999.0000        1.3670000
       12.926800       -9999.0000        1.3592100
       13.135900       -9999.0000        1.3514600
       13.348300       -9999.0000        1.3437600
       13.564200       -9999.0000        1.3361100
       13.783600       -9999.0000        1.3284900
       14.006600       -9999.0000        1.3209200
       14.233100       -9999.0000        1.3134000
       14.463300       -9999.0000        1.3059200
       14.697300       -9999.0000        1.2984700
       14.935000       -9999.0000        1.2910800
       15.176500       -9999.0000        1.2830400
       15.422000       -9999.0000        1.2712300
       15.671400       -9999.0000        1.2595400
       15.924900       -9999.0000        1.2479500
       16.182500       -9999.0000        1.2364700
       16.444200       -9999.0000        1.2250900
       16.710200       -9999.0000        1.2138200
       16.980500       -9999.0000        1.2026500
       17.255100       -9999.0000        1.1915800
       17.534200       -9999.0000        1.1806200
       17.817800       -9999.0000        1.1697600
       18.106000       -9999.0000        1.1589900
       18.398900       -9999.0000        1.1483300
       18.696400       -9999.0000        1.1377700
       18.998800       -9999.0000        1.1273000
       19.306100       -9999.0000        1.1169200
       19.618400       -9999.0000        1.1066500
       19.935700       -9999.0000        1.0964700
       20.258200       -9999.0000        1.0863800
       20.585800       -9999.0000        1.0763800
       20.918800       -9999.0000        1.0664800
       21.257100       -9999.0000        1.0566600
       21.600900       -9999.0000        1.0469400
       21.950300       -9999.0000        1.0373100
       22.305300       -9999.0000        1.0277700
       22.666100       -9999.0000        1.0183100
       23.032700       -9999.0000        1.0089400
       23.405300       -9999.0000       0.99965700
       23.783800       -9999.0000       0.99060600
       24.168500       -9999.0000       0.98176300
       24.559400       -9999.0000       0.97300000
       24.956600       -9999.0000       0.96431300
       25.360300       -9999.0000       0.95570600
       25.770500       -9999.0000       0.94717500
       26.187300       -9999.0000       0.93872000
       26.610900       -9999.0000       0.93034000
       27.041300       -9999.0000       0.92203600
       27.478600       -9999.0000       0.91380500
       27.923100       -9999.0000       0.90564800
       28.374700       -9999.0000       0.89756300
       28.833700       -9999.0000       0.88955200
       29.300000        2.7011400       0.88161100
       29.773900        2.7092400       0.87374100
       30.255500        2.7168400       0.86668100
       30.744900        2.7246700       0.86033400
       31.242100        2.7329200       0.85402900
       31.747500        2.7412300       0.84776700
       32.260900        2.7495800       0.84155000
       32.782700        2.7579500       0.83537700
       33.313000        2.7663500       0.82925000
       33.851800        2.7747900       0.82316900
       34.399300        2.7833200       0.81713100
       34.955700        2.7922000       0.81113800
       35.521100        2.8010100       0.80426700
       36.095600        2.8093600       0.79737600
       36.679400        2.8174300       0.79054300
       37.272700        2.8253200       0.78376900
       37.875500        2.8330900       0.77705200
       38.488200        2.8407600       0.77039000
       39.110700        2.8483700       0.76378500
       39.743200        2.8560700       0.75724300
       40.386100        2.8638100       0.75030700
       41.039300        2.8712100       0.74313600
       41.703100        2.8782400       0.73603200
       42.377600        2.8850800       0.72899600
       43.063000        2.8917700       0.72202800
       43.759500        2.8983300       0.71512900
       44.467300        2.9048800       0.70829400
       45.186500        2.9114500       0.70138100
       45.917400        2.9177800       0.69412900
       46.660000        2.9238000       0.68695200
       47.414700        2.9296200       0.67985200
       48.181600        2.9353100       0.67282600
       48.960900        2.9409400       0.66586900
       49.752800        2.9467000       0.65898200
       50.557600        2.9524500       0.65145700
       51.375300        2.9576800       0.64370300
       52.206200        2.9624200       0.63604100
       53.050600        2.9668700       0.62847000
       53.908700        2.9710700       0.62098100
       54.780600        2.9750400       0.61358700
       55.666700        2.9788200       0.60628100
       56.567000        2.9824200       0.59906700
       57.482000        2.9858900       0.59194000
       58.411700        2.9892900       0.58489400
       59.356400        2.9927000       0.57773400
       60.316500        2.9959100       0.57034500
       61.292100        2.9988700       0.56289700
       62.283400        3.0014900       0.55518600
       63.290800        3.0035900       0.54758300
       64.314500        3.0054000       0.54008800
       65.354700        3.0069400       0.53269400
       66.411800        3.0082400       0.52539900
       67.485900        3.0093300       0.51820400
       68.577500        3.0103000       0.51110900
       69.686700        3.0111400       0.50385300
       70.813800        3.0117300       0.49654200
       71.959100        3.0119400       0.48898800
       73.123000        3.0116700       0.48148200
       74.305700        3.0109700       0.47409200
       75.507600        3.0099500       0.46682200
       76.728900        3.0086200       0.45965700
       77.969900        3.0070400       0.45259800
       79.231000        3.0051700       0.44545500
       80.512500        3.0029600       0.43842100
       81.814700        3.0004400       0.43126000
       83.138000        2.9974400       0.42407300
       84.482700        2.9939200       0.41699300
       85.849100        2.9899800       0.41003300
       87.237700        2.9856600       0.40319300
       88.648700        2.9809500       0.39641400
       90.082500        2.9758400       0.38968500
       91.539500        2.9703000       0.38298100
       93.020100        2.9642400       0.37624000
       94.524600        2.9576100       0.36961900
       96.053500        2.9504700       0.36311600
       97.607100        2.9428300       0.35673100
       99.185800        2.9349300       0.35046400
       100.79000        2.9265700       0.34380800
       102.42000        2.9171500       0.33679900
       104.07700        2.9067300       0.33000600
       105.76000        2.8953200       0.32333100
       107.47100        2.8828700       0.31700300
       109.20900        2.8695400       0.31135400
       110.97500        2.8556900       0.30622800
       112.77000        2.8416200       0.30133100
       114.59400        2.8270700       0.29625500
       116.44800        2.8116000       0.29057900
       118.33100        2.7947600       0.28482200
       120.24500        2.7765700       0.27918000
       122.19000        2.7570800       0.27364900
       124.16600        2.7362100       0.26822600
       126.17500        2.7138600       0.26291200
       128.21500        2.6899300       0.25770300
       130.28900        2.6642700       0.25259500
       132.39700        2.6367900       0.24757400
       134.53800        2.6072300       0.24249600
       136.71400        2.5752300       0.23746200
       138.92500        2.5405900       0.23253000
       141.17200        2.5030300       0.22770200
       143.45600        2.4622000       0.22297400
       145.77600        2.4175000       0.21834400
       148.13400        2.3686300       0.21420500
       150.53000        2.3156600       0.21032800
       152.96400        2.2573500       0.20569700
       155.43900        2.1920700       0.20071200
       157.95300        2.1185400       0.19552500
       160.50700        2.0350700       0.19047400
       163.10300        1.9396600       0.18555300
       165.74200        1.8293100       0.18075700
       168.42200        1.6996800       0.17608500
       171.14600        1.5443600       0.17182600
       173.91500        1.3536000       0.16806700
       176.72700        1.1105700       0.16487400
       179.58600       0.78217100       0.16175800
       182.49100       0.29049300       0.15861700
       185.44200      -0.63708900       0.15512300
       187.90000       -4.7858100       0.15231300
       188.10000       -4.7733800        4.2515500
       188.44200       -2.8197600        4.2428600
       191.48900     -0.032148400        4.1667000
       194.58700       0.85910100        4.0919100
       197.73400        1.4181900        4.0212800
       200.93200        1.8326000        3.9541400
       204.18200        2.1649500        3.8881500
       207.48500        2.4445200        3.8232700
       210.84000        2.6897900        3.7594500
       214.25100        2.9080400        3.6855500
       217.71600        3.0979500        3.6107400
       221.23700        3.2659300        3.5356500
       224.81600        3.4161900        3.4621200
       228.45200        3.5520900        3.3901300
       232.14700        3.6758800        3.3196100
       235.90200        3.7893000        3.2505800
       239.71700        3.8937300        3.1830000
       243.59500        3.9903000        3.1168300
       247.53500        4.0799200        3.0520100
       251.53800        4.1633400        2.9885500
       255.60700        4.2412600        2.9264100
       259.74100        4.3142900        2.8655400
       263.94200        4.3829500        2.8059300
       268.21100        4.4478200        2.7475700
       272.54900        4.5097800        2.6904400
       276.95700        4.5695400        2.6327400
       281.43700        4.6255100        2.5740900
       285.98900        4.6768000        2.5153600
       290.61500        4.7239300        2.4577900
       295.31500        4.7676300        2.4015400
       300.09200        4.8083300        2.3465700
       304.94500        4.8463200        2.2928500
       309.87800        4.8818300        2.2403500
       314.89000        4.9150500        2.1890800
       319.98300        4.9462100        2.1389800
       325.15800        4.9754000        2.0900100
       330.41800        5.0027900        2.0422000
       335.76200        5.0285700        1.9954800
       341.19200        5.0527700        1.9497800
       346.71100        5.0755100        1.9051800
       352.31900        5.0969600        1.8616000
       358.01700        5.1171800        1.8189900
       363.80800        5.1362400        1.7773500
       369.69200        5.1542700        1.7366700
       375.67200        5.1713600        1.6969100
       381.74800        5.1875400        1.6580800
       387.92200        5.2029900        1.6203000
       394.19700        5.2191800        1.5837100
       400.57300        5.2351700        1.5454000
       407.05200        5.2485700        1.5070200
       413.63500        5.2604900        1.4695100
       420.32600        5.2712400        1.4329800
       427.12400        5.2810700        1.3973700
       434.03200        5.2901200        1.3626200
       441.05200        5.2985100        1.3287300
       448.18600        5.3065700        1.2955600
       455.43500        5.3140800        1.2625600
       462.80200        5.3206500        1.2299100
       470.28700        5.3262500        1.1978600
       477.89400        5.3309800        1.1666700
       485.62300        5.3350800        1.1362900
       493.47800        5.3386200        1.1067000
       501.45900        5.3416700        1.0778800
       509.57000        5.3443500        1.0498100
       517.81200        5.3467300        1.0223800
       526.18700        5.3489300       0.99538500
       534.69800        5.3506400       0.96856300
       543.34600        5.3514300       0.94220200
       552.13400        5.3513500       0.91655000
       561.06500        5.3507300       0.89262500
       570.13900        5.3506600       0.86968700
       579.36100        5.3508700       0.84655000
       588.73200        5.3506500       0.82379900
       598.25400        5.3500300       0.80151600
       607.93000        5.3491700       0.77983300
       617.76300        5.3482600       0.75873900
       627.75500        5.3474400       0.73814900
       637.90800        5.3470200       0.71728600
       648.22600        5.3460700       0.69580400
       658.71100        5.3435100       0.67418800
       669.36500        5.3393600       0.65325000
       680.19100        5.3339000       0.63496800
       691.19300        5.3293400       0.61871900
       702.37200        5.3266200       0.60326700
       713.73300        5.3246700       0.58695100
       725.27700        5.3219900       0.57023200
       737.00800        5.3189000       0.55398400
       748.92800        5.3156200       0.53820400
       761.04200        5.3122300       0.52287200
       773.35100        5.3088200       0.50793700
       785.85900        5.3053400       0.49331200
       798.57000        5.3017100       0.47901300
       811.48600        5.2979700       0.46512100
       824.61100        5.2941700       0.45163400
       837.94900        5.2903700       0.43853800
       851.50200        5.2866200       0.42569700
       865.27400        5.2828000       0.41309400
       879.26900        5.2788200       0.40074300
       893.49100        5.2747100       0.38874600
       907.94300        5.2704900       0.37711300
       922.62800        5.2661700       0.36583500
       937.55100        5.2618000       0.35511100
       952.71500        5.2575400       0.34474900
       968.12400        5.2533800       0.33472700
       983.78300        5.2493100       0.32499900
       999.69500        5.2453600       0.31552500
       1015.8600        5.2415400       0.30629900
       1032.2900        5.2377800       0.29700600
       1048.9900        5.2338800       0.28795400
       1065.9600        5.2299100       0.27913700
       1083.2000        5.2259100       0.27059800
       1100.7200        5.2219100       0.26231900
       1118.5200        5.2179200       0.25428900
       1136.6100        5.2139400       0.24650700
       1155.0000        5.2099800       0.23896100
       1173.6800        5.2060500       0.23164500
       1192.6600        5.2021600       0.22455500
       1211.9500        5.1983100       0.21768200
       1231.5500        5.1945000       0.21102100
       1251.4700        5.1907500       0.20454800
       1271.7200        5.1870400       0.19826100
       1292.2900        5.1833600       0.19215100
       1313.1900        5.1797200       0.18622800
       1334.4300        5.1761200       0.18048800
       1356.0100        5.1725700       0.17492500
       1377.9400        5.1690700       0.16953400
       1400.2300        5.1656200       0.16431000
       1422.8800        5.1622300       0.15924800
       1445.8900        5.1589000       0.15433800
       1469.2800        5.1556300       0.14957100
       1493.0400        5.1524300       0.14493900
       1517.1900        5.1492900       0.14038800
       1541.7300        5.1461500       0.13597300
       1566.6700        5.1430500       0.13169700
       1592.0100        5.1399900       0.12755600
       1617.7600        5.1369800       0.12354400
       1643.9200        5.1340200       0.11965800
       1670.5100        5.1311000       0.11589400
       1697.5300        5.1282400       0.11224800
       1724.9900        5.1254400       0.10871600
       1752.8900        5.1227000       0.10526600
       1781.2400        5.1199900       0.10191600
       1810.0500        5.1173200      0.098666300
       1839.3200        5.1146900      0.095517600
       1869.0700        5.1121000      0.092468600
       1899.3000        5.1095500      0.089516600
       1930.0200        5.1070500      0.086661200
       1961.2400        5.1045900      0.083897100
       1992.9600        5.1021600      0.081220600
       2025.2000        5.0998100      0.078702700
       2057.9500        5.0975700      0.076173900
       2091.2400        5.0953200      0.073722700
       2125.0600        5.0931100      0.071348100
       2159.4300        5.0909400      0.069048900
       2194.3600        5.0888100      0.066814000
       2229.8500        5.0867200      0.064654300
       2265.9200        5.0846800      0.062560700
       2302.5700        5.0826700      0.060528600
       2339.8100        5.0807000      0.058563500
       2377.6600        5.0787700      0.056658200
       2416.1100        5.0768900      0.054812300
       2455.1900        5.0750300      0.053024600
       2494.9000        5.0732200      0.051292800
       2535.2600        5.0714400      0.049614800
       2576.2600        5.0697100      0.047989700
       2617.9300        5.0680000      0.046415700
       2660.2700        5.0663300      0.044891300
       2703.3000        5.0647000      0.043414900
       2747.0300        5.0631000      0.041985300
       2791.4600        5.0615400      0.040600500
       2836.6100        5.0600100      0.039260600
       2882.4900        5.0585100      0.037962500
       2929.1100        5.0570500      0.036705500
       2976.4800        5.0556100      0.035488400
       3024.6300        5.0542100      0.034310400
       3073.5500        5.0528400      0.033169700
       3123.2600        5.0515000      0.032065800
       3173.7800        5.0501900      0.030997100
       3225.1100        5.0489100      0.029962500
       3277.2700        5.0476500      0.028961600
       3330.2800        5.0464300      0.027992200
       3384.1500        5.0452300      0.027054300
       3438.8800        5.0440600      0.026147100
       3494.5000        5.0429200      0.025268700
       3551.0200        5.0418000      0.024419000
       3608.4600        5.0407100      0.023596300
       3666.8200        5.0396400      0.022800700
       3726.1300        5.0386000      0.022030900
       3786.4000        5.0375800      0.021285600
       3847.6400        5.0365800      0.020564900
       3909.8700        5.0356100      0.019868200
       3973.1100        5.0346600      0.019193700
       4037.3800        5.0337300      0.018547600
       4102.6800        5.0328300      0.017916500
       4169.0300        5.0319500      0.017307200
       4236.4600        5.0310900      0.016718100
       4304.9800        5.0302400      0.016148700
       4374.6200        5.0294200      0.015598000
       4445.3700        5.0286200      0.015065900
       4517.2700        5.0278400      0.014551800
       4590.3300        5.0270800      0.014054700
       4664.5800        5.0263300      0.013574100
       4740.0300        5.0256000      0.013109400
       4816.6900        5.0249000      0.012660700
       4894.6000        5.0242000      0.012226600
       4973.7700        5.0235300      0.011807200
       5054.2100        5.0228700      0.011401900
       5135.9600        5.0222300      0.011010100
       5219.0300        5.0216100      0.010631500
       5303.4400        5.0210000      0.010265500
       5389.2200        5.0204000     0.0099118500
       5476.3900        5.0198200     0.0095700100
       5564.9700        5.0192600     0.0092397100
       5654.9800        5.0187100     0.0089204800
       5746.4400        5.0181700     0.0086119400
       5839.3900        5.0176500     0.0083138000
       5933.8300        5.0171400     0.0080257400
       6029.8100        5.0166500     0.0077473600
       6127.3300        5.0161600     0.0074783000
       6226.4400        5.0156900     0.0072183400
       6327.1500        5.0152300     0.0069671200
       6429.4800        5.0147800     0.0067244300
       6533.4800        5.0143500     0.0064898400
       6639.1500        5.0139200     0.0062632900
       6746.5400        5.0135100     0.0060444000
       6855.6500        5.0131100     0.0058328700
       6966.5400        5.0127100     0.0056283900
       7079.2200        5.0123300     0.0054310000
       7193.7200        5.0119600     0.0052402600
       7310.0700        5.0116000     0.0050560100
       7428.3100        5.0112400     0.0048780000
       7548.4500        5.0109000     0.0047059500
       7670.5400        5.0105600     0.0045399000
       7794.6100        5.0102400     0.0043794900
       7920.6800        5.0099200     0.0042245600
       8048.7900        5.0096100     0.0040748900
       8178.9800        5.0093100     0.0039302000
       8311.2600        5.0090200     0.0037906200
       8445.6900        5.0087300     0.0036557800
       8582.2900        5.0084500     0.0035254700
       8721.1100        5.0081800     0.0033997900
       8862.1600        5.0079200     0.0032783800
       9005.5000        5.0076600     0.0031610900
       9151.1600        5.0074100     0.0030478300
       9299.1700        5.0071700     0.0029385700
       9449.5800        5.0069300     0.0028329100
       9602.4200        5.0067000     0.0027310300
       9757.7300        5.0064800     0.0026325600
       9915.5500        5.0062600     0.0025377500
       10075.900        5.0060500     0.0024460700
       10238.900        5.0058400     0.0023575700
       10404.500        5.0056400     0.0022721500
       10572.800        5.0054500     0.0021897000
       10743.800        5.0052600     0.0021101400
       10917.600        5.0050700     0.0020333500
       11094.200        5.0048900     0.0019592500
       11273.600        5.0047200     0.0018877400
       11455.900        5.0045500     0.0018187500
       11641.200        5.0043800     0.0017521900
       11829.500        5.0042200     0.0016879600
       12020.800        5.0040600     0.0016260100
       12215.300        5.0039100     0.0015662500
       12412.800        5.0037600     0.0015086000
       12613.600        5.0036200     0.0014530000
       12817.600        5.0034800     0.0013993800
       13025.000        5.0033400     0.0013476600
       13235.600        5.0032100     0.0012978000
       13449.700        5.0030800     0.0012497200
       13667.200        5.0029500     0.0012033600
       13888.300        5.0028300     0.0011586700
       14112.900        5.0027100     0.0011155900
       14341.200        5.0025900     0.0010740600
       14573.100        5.0024800     0.0010340400
       14808.900        5.0023700    0.00099546500
       15048.400        5.0022700    0.00095829600
       15291.800        5.0021600    0.00092248200
       15539.100        5.0020600    0.00088797700
       15790.400        5.0019600    0.00085473600
       16045.800        5.0018700    0.00082271800
       16305.400        5.0017800    0.00079187900
       16569.100        5.0016900    0.00076218000
       16837.100        5.0016000    0.00073358200
       17109.400        5.0015200    0.00070604700
       17386.100        5.0014300    0.00067954000
       17667.400        5.0013500    0.00065402400
       17953.100        5.0012800    0.00062946600
       18243.500        5.0012000    0.00060583200
       18538.600        5.0011300    0.00058309300
       18838.400        5.0010500    0.00056121500
       19143.100        5.0009900    0.00054017100
       19452.700        5.0009200    0.00051993000
       19767.400        5.0008500    0.00050046600
       20087.100        5.0007900    0.00048156000
       20412.000        5.0007300    0.00046357200
       20742.100        5.0006700    0.00044627500
       21077.600        5.0006100    0.00042964100
       21418.500        5.0005500    0.00041364500
       21765.000        5.0005000    0.00039826000
       22117.000        5.0004400    0.00038346300
       22474.700        5.0003900    0.00036923100
       22838.200        5.0003400    0.00035554100
       23207.600        5.0002900    0.00034237200
       23583.000        5.0002500    0.00032970200
       23964.400        5.0002000    0.00031751500
       24352.000        5.0001500    0.00030578800
       24745.900        5.0001100    0.00029450600
       25146.200        5.0000700    0.00028365000
       25552.900        5.0000300    0.00027320400
       25966.200        4.9999900    0.00026315100
       26386.100        4.9999500    0.00025347700
       26812.900        4.9999100    0.00024416700
       27246.600        4.9998800    0.00023520600
       27687.300        4.9998400    0.00022658200
       28135.100        4.9998100    0.00021828100
       28590.200        4.9997700    0.00021029000
       29052.600        4.9997400    0.00020259800
       29522.500        4.9997100    0.00019519200
       30000.000        4.9996800    0.00018806300
       30800.000        4.9996200    0.00019220700
       31500.000        4.9995800    0.00018234100
       32300.000        4.9995400    0.00017192700
       33000.000        4.9995100    0.00016349700
       33800.000        4.9994700    0.00015456700
       34500.000        4.9994300    0.00014731300
       36030.000        4.9993600    0.00013304400
       37000.000        4.9993300    0.00012499300
       38000.000        4.9993000    0.00011740200
       39000.000        4.9992600    0.00011045100
       40000.000        4.9992300    0.00010407300
       41500.000        4.9992000    9.5430500e-05
       43000.000        4.9991600    8.7775700e-05
       44500.000        4.9991300    8.0966700e-05
       46000.000        4.9990900    7.4886100e-05
       48000.000        4.9990600    6.7744700e-05
       50000.000        4.9990300    6.1535500e-05
       54000.000        4.9989800    5.1327800e-05
       57530.000        4.9989400    4.4211900e-05
       59540.000        4.9989200    4.0774500e-05
       60000.000        4.9989100    4.0041600e-05
       66830.000        4.9988600    3.1057800e-05
       70000.000        4.9988500    2.7844500e-05
       74960.000        4.9988200    2.3701600e-05
       77110.000        4.9988100    2.2175800e-05
       80000.000        4.9988000    2.0336600e-05
       90000.000        4.9987700    1.5468700e-05
       95000.000        4.9987600    1.3652200e-05
       100000.00        4.9987400    1.2126500e-05
