;  Atomic scattering factors for Ba.
;   
;  Concatenation of data from CXRO <http://www-cxro.lbl.gov>
;  and LLNL <http://www-phys.llnl.gov/V_Div/scattering/asf.html>
;  
;  E (eV) f1 f2
;---------------
       10.000000       -9999.0000       0.10258200
       10.161700       -9999.0000       0.10760500
       10.326100       -9999.0000       0.11287400
       10.493100       -9999.0000       0.11840100
       10.662800       -9999.0000       0.12419800
       10.835300       -9999.0000       0.13028000
       11.010600       -9999.0000       0.13665900
       11.188600       -9999.0000       0.14335000
       11.369600       -9999.0000       0.15036900
       11.553500       -9999.0000       0.15773200
       11.740400       -9999.0000       0.16545500
       11.930300       -9999.0000       0.17355700
       12.123200       -9999.0000       0.18333800
       12.319300       -9999.0000       0.19428800
       12.518600       -9999.0000       0.20589100
       12.721000       -9999.0000       0.21818700
       12.926800       -9999.0000       0.23121800
       13.135900       -9999.0000       0.24761500
       13.348300       -9999.0000       0.26521800
       13.564200       -9999.0000       0.28407200
       13.783600       -9999.0000       0.30426700
       14.006600       -9999.0000       0.36267700
       14.233100       -9999.0000       0.42000400
       14.463300       -9999.0000       0.47409200
       14.697300       -9999.0000       0.53373800
       14.935000       -9999.0000       0.59955300
       15.176500       -9999.0000       0.66692700
       15.422000       -9999.0000       0.73096000
       15.671400       -9999.0000       0.69314400
       15.924900       -9999.0000       0.65467600
       16.182500       -9999.0000       0.62753200
       16.444200       -9999.0000       0.74340400
       16.710200       -9999.0000        1.5105500
       16.980500       -9999.0000        2.3163200
       17.255100       -9999.0000        5.8272000
       17.534200       -9999.0000        9.1875800
       17.817800       -9999.0000        11.065100
       18.106000       -9999.0000        12.170600
       18.398900       -9999.0000        13.386600
       18.696400       -9999.0000        16.271500
       18.998800       -9999.0000        20.831100
       19.306100       -9999.0000        25.539100
       19.618400       -9999.0000        26.176300
       19.935700       -9999.0000        26.829400
       20.258200       -9999.0000        26.972500
       20.585800       -9999.0000        26.697200
       20.918800       -9999.0000        26.126900
       21.257100       -9999.0000        24.855600
       21.600900       -9999.0000        23.646100
       21.950300       -9999.0000        22.495500
       22.305300       -9999.0000        21.400800
       22.666100       -9999.0000        20.359400
       23.032700       -9999.0000        19.368700
       23.405300       -9999.0000        18.426200
       23.783800       -9999.0000        17.529600
       24.168500       -9999.0000        16.662500
       24.559400       -9999.0000        15.836500
       24.956600       -9999.0000        15.051500
       25.360300       -9999.0000        14.305400
       25.770500       -9999.0000        13.596300
       26.187300       -9999.0000        12.922400
       26.610900       -9999.0000        12.281800
       27.041300       -9999.0000        11.673000
       27.478600       -9999.0000        11.094400
       27.923100       -9999.0000        10.544400
       28.374700       -9999.0000        10.001800
       28.833700       -9999.0000        9.4795300
       29.300000        16.447100        8.9844900
       29.773900        16.411800        8.5152900
       30.255500        16.361000        8.0705900
       30.744900        16.297200        7.6491400
       31.242100        16.222300        7.2496700
       31.747500        16.138500        6.8710800
       32.260900        16.047300        6.5122500
       32.782700        15.950700        6.1721600
       33.313000        15.851100        5.8498400
       33.851800        15.752500        5.5443500
       34.399300        15.664200        5.2548100
       34.955700        15.595200        4.9330400
       35.521100        15.473300        4.6015300
       36.095600        15.326000        4.2922900
       36.679400        15.163200        4.0038400
       37.272700        14.989200        3.7347700
       37.875500        14.806300        3.4837900
       38.488200        14.616200        3.2496700
       39.110700        14.419200        3.0312900
       39.743200        14.212400        2.8275800
       40.386100        13.986700        2.6507800
       41.039300        13.778800        2.5067100
       41.703100        13.582000        2.3704800
       42.377600        13.389300        2.2416500
       43.063000        13.198800        2.1198200
       43.759500        13.009400        2.0046100
       44.467300        12.820100        1.8956600
       45.186500        12.630400        1.7926400
       45.917400        12.439500        1.6952100
       46.660000        12.246800        1.6030800
       47.414700        12.051500        1.5159600
       48.181600        11.852600        1.4335700
       48.960900        11.648100        1.3556500
       49.752800        11.432800        1.2851700
       50.557600        11.218100        1.2330900
       51.375300        11.002500        1.1831100
       52.206200        10.775000        1.1382200
       53.050600        10.551100        1.1199600
       53.908700        10.332800        1.1024800
       54.780600        10.117300        1.0925900
       55.666700        9.9034300        1.0827900
       56.567000        9.6875100        1.0730700
       57.482000        9.4668200        1.0634400
       58.411700        9.2375200        1.0546700
       59.356400        9.0020200        1.0529900
       60.316500        8.7580300        1.0513100
       61.292100        8.4945200        1.0580700
       62.283400        8.2336400        1.0811100
       63.290800        7.9711800        1.1046500
       64.314500        7.7008300        1.1287100
       65.354700        7.4188400        1.1532900
       66.411800        7.1197600        1.1842300
       67.485900        6.8130400        1.2225200
       68.577500        6.4932400        1.2620500
       69.686700        6.1546900        1.3028600
       70.813800        5.7950200        1.3538500
       71.959100        5.4199300        1.4108900
       73.123000        5.0229100        1.4703300
       74.305700        4.5996500        1.5354000
       75.507600        4.1469500        1.6040900
       76.728900        3.6552200        1.6758500
       77.969900        3.1202100        1.7677100
       79.231000        2.5519900        1.8720500
       80.512500        1.9411200        1.9800400
       81.814700        1.2688400        2.0882200
       83.138000       0.52341300        2.2023200
       84.482700      -0.30353300        2.3226500
       85.849100       -1.2565100        2.4043600
       87.237700       -2.4270300        2.4771400
       88.648700       -3.9115000        2.6201900
       90.082500       -6.3009200        2.6798300
       91.539500       -8.6849100        4.9538700
       93.020100       -7.4412600        9.1577900
       94.524600       -7.7841700        3.4625200
       96.053500       -12.857200        4.2723300
       97.607100       -18.342500        5.8170900
       99.185800       -25.301400        9.4653900
       100.79000       -32.329500        17.337800
       102.42000       -36.798800        35.084800
       104.07700       -31.133800        48.030700
       105.76000       -16.761800        57.260200
       107.47100       -4.9025300        58.132700
       109.20900        2.5863600        56.758200
       110.97500        7.6051600        54.901300
       112.77000        11.102900        54.048200
       114.59400        14.072600        56.867500
       116.44800        24.389100        59.231600
       118.33100        33.094900        54.939900
       120.24500        38.496200        49.125400
       122.19000        41.612100        43.206000
       124.16600        43.213200        38.252400
       126.17500        44.213600        33.958400
       128.21500        44.984100        30.146400
       130.28900        45.260800        26.196400
       132.39700        44.964800        22.713300
       134.53800        44.293400        19.597200
       136.71400        43.213700        16.995100
       138.92500        42.234200        15.015000
       141.17200        41.507300        13.186300
       143.45600        40.620800        11.356600
       145.77600        39.614500        9.7809200
       148.13400        38.581100        8.3990000
       150.53000        37.527800        7.2013900
       152.96400        36.478700        6.1745400
       155.43900        35.456300        5.2913300
       157.95300        34.444500        4.5232000
       160.50700        33.442800        3.8806400
       163.10300        32.440200        3.3255500
       165.74200        31.509500        3.0054200
       168.42200        30.667400        2.7161000
       171.14600        29.898200        2.4869100
       173.91500        29.173700        2.2787800
       176.72700        28.448500        2.1193300
       179.58600        27.778300        2.0156500
       182.49100        27.135600        1.9512600
       185.44200        26.516300        1.9317200
       188.44200        25.929400        1.9561800
       191.48900        25.405500        2.0534600
       194.58700        24.947000        2.1555900
       197.73400        24.531000        2.2589000
       200.93200        24.144100        2.3644200
       204.18200        23.781700        2.4748600
       207.48500        23.438800        2.5904700
       210.84000        23.106900        2.7121700
       214.25100        22.795300        2.8612000
       217.71600        22.508100        3.0184200
       221.23700        22.242400        3.1842800
       224.81600        21.997600        3.3592600
       228.45200        21.771300        3.5380700
       232.14700        21.560400        3.7251600
       235.90200        21.365400        3.9221400
       239.71700        21.188600        4.1295400
       243.59500        21.032300        4.3479000
       247.53500        20.906600        4.5745400
       251.53800        20.794400        4.7889000
       255.60700        20.695100        5.0133000
       259.74100        20.613700        5.2482200
       263.94200        20.557400        5.4941400
       268.21100        20.550600        5.7515900
       272.54900        20.580700        5.9596400
       276.95700        20.597700        6.1448900
       281.43700        20.621700        6.3359000
       285.98900        20.666100        6.5091200
       290.61500        20.704000        6.6681600
       295.31500        20.738500        6.8310900
       300.09200        20.780200        6.9979900
       304.94500        20.832800        7.1689800
       309.87800        20.900900        7.3441400
       314.89000        21.009600        7.5235800
       319.98300        21.134800        7.6477400
       325.15800        21.239900        7.7553700
       330.41800        21.340100        7.8645300
       335.76200        21.444100        7.9752300
       341.19200        21.557900        8.0874800
       346.71100        21.715900        8.2013200
       352.31900        21.875300        8.2366100
       358.01700        21.998400        8.2576600
       363.80800        22.104100        8.2787700
       369.69200        22.200100        8.2999200
       375.67200        22.290100        8.3211400
       381.74800        22.382500        8.3382700
       387.92200        22.464600        8.3454000
       394.19700        22.536300        8.3525400
       400.57300        22.602300        8.3596900
       407.05200        22.663400        8.3668500
       413.63500        22.720500        8.3740000
       420.32600        22.774300        8.3811700
       427.12400        22.825700        8.3883500
       434.03200        22.880200        8.3955200
       441.05200        22.935400        8.3901000
       448.18600        22.977300        8.3752400
       455.43500        23.009100        8.3604100
       462.80200        23.033300        8.3455900
       470.28700        23.050800        8.3308100
       477.89400        23.062000        8.3160600
       485.62300        23.067400        8.3013200
       493.47800        23.067600        8.2866200
       501.45900        23.063400        8.2719400
       509.57000        23.056200        8.2572800
       517.81200        23.047300        8.2426600
       526.18700        23.077900        8.2159800
       534.69800        23.072600        8.1216400
       543.34600        23.017800        8.0283800
       552.13400        22.935600        7.9361900
       561.06500        22.827700        7.8450600
       570.13900        22.694100        7.7549800
       579.36100        22.534000        7.6659300
       588.73200        22.345500        7.5779000
       598.25400        22.116100        7.4930700
       607.93000        21.861800        7.4281500
       617.76300        21.583900        7.3638000
       627.75500        21.272200        7.3000100
       637.90800        20.921200        7.2367600
       648.22600        20.523700        7.1740600
       658.71100        20.087100        7.1064900
       669.36500        19.570400        7.0158000
       680.19100        18.953500        6.9262600
       691.19300        18.224000        6.8378600
       702.37200        17.361600        6.7470500
       713.73300        16.300300        6.6421500
       725.27700        14.960700        6.5388800
       737.00800        13.214400        6.4372200
       748.92800        10.789800        6.3371400
       761.04200        6.9936600        6.2386200
       773.35100       -1.2394200        6.1416200
       780.10000       -36.046400        6.0897300
       780.30000       -36.038700        32.091900
       785.85900       -2.4817700        32.002400
       798.57000        7.5459400        31.801000
       811.48600        12.208600        31.600900
       824.61100        15.348700        31.402100
       837.94900        17.752800        31.204600
       851.50200        19.721000        31.008300
       865.27400        21.400900        30.813200
       879.26900        22.876500        30.619300
       893.49100        24.201600        30.426700
       907.94300        25.419600        30.235300
       922.62800        26.538600        30.014900
       937.55100        27.567400        29.793000
       952.71500        28.521800        29.572800
       968.12400        29.416400        29.354100
       983.78300        30.260300        29.137100
       999.69500        31.060700        28.921700
       1015.8600        31.823500        28.707900
       1032.2900        32.553700        28.495700
       1048.9900        33.255500        28.285000
       1065.9600        33.932800        28.075900
       1083.2000        34.592800        27.868300
       1100.7200        35.236400        27.653900
       1118.5200        35.855500        27.432100
       1136.6100        36.453500        27.212200
       1155.0000        37.034900        26.994000
       1173.6800        37.602300        26.777600
       1192.6600        38.158200        26.562900
       1211.9500        38.704800        26.349900
       1231.5500        39.244500        26.138600
       1251.4700        39.780300        25.929100
       1271.7200        40.315500        25.721100
       1292.2900        40.855200        25.514900
       1313.1900        41.407900        25.310300
       1334.4300        41.997200        25.107400
       1356.0100        42.660800        24.814000
       1377.9400        43.254400        24.396600
       1400.2300        43.746800        23.986200
       1422.8800        44.201500        23.582700
       1445.8900        44.625600        23.186000
       1469.2800        45.025200        22.796000
       1493.0400        45.404800        22.412500
       1517.1900        45.768300        22.035500
       1541.7300        46.120500        21.664800
       1566.6700        46.474200        21.300300
       1592.0100        46.820000        20.903200
       1617.7600        47.133100        20.494700
       1643.9200        47.413600        20.094100
       1670.5100        47.674300        19.701400
       1697.5300        47.917800        19.316400
       1724.9900        48.146100        18.938900
       1752.8900        48.360900        18.568700
       1781.2400        48.563600        18.205900
       1810.0500        48.755400        17.850000
       1839.3200        48.937200        17.501200
       1869.0700        49.114900        17.158000
       1899.3000        49.281400        16.813300
       1930.0200        49.434000        16.475400
       1961.2400        49.577800        16.144400
       1992.9600        49.710200        15.819900
       2025.2000        49.842900        15.510200
       2057.9500        49.970800        15.190200
       2091.2400        50.087300        14.875600
       2125.0600        50.194500        14.565800
       2159.4300        50.293700        14.261400
       2194.3600        50.385800        13.961800
       2229.8500        50.470700        13.666800
       2265.9200        50.548700        13.377000
       2302.5700        50.620200        13.091900
       2339.8100        50.685300        12.811700
       2377.6600        50.744500        12.536500
       2416.1100        50.797800        12.265600
       2455.1900        50.845100        11.999600
       2494.9000        50.887600        11.738700
       2535.2600        50.924600        11.481700
       2576.2600        50.956100        11.229500
       2617.9300        50.982500        10.981700
       2660.2700        51.004500        10.738800
       2703.3000        51.021400        10.499500
       2747.0300        51.033400        10.265000
       2791.4600        51.040700        10.034700
       2836.6100        51.044100        9.8089700
       2882.4900        51.042600        9.5861300
       2929.1100        51.036300        9.3683800
       2976.4800        51.025800        9.1543300
       3024.6300        51.010900        8.9442900
       3073.5500        50.991400        8.7380300
       3123.2600        50.967500        8.5356200
       3173.7800        50.939000        8.3369600
       3225.1100        50.906000        8.1420800
       3277.2700        50.868400        7.9507500
       3330.2800        50.825900        7.7629800
       3384.1500        50.778600        7.5787800
       3438.8800        50.726200        7.3980600
       3494.5000        50.668600        7.2206400
       3551.0200        50.605500        7.0466400
       3608.4600        50.536700        6.8759000
       3666.8200        50.461800        6.7083300
       3726.1300        50.380500        6.5440500
       3786.4000        50.292300        6.3828200
       3847.6400        50.196700        6.2246100
       3909.8700        50.093000        6.0694100
       3973.1100        49.980500        5.9171500
       4037.3800        49.858400        5.7678000
       4102.6800        49.725500        5.6213400
       4169.0300        49.580600        5.4775900
       4236.4600        49.422100        5.3365900
       4304.9800        49.248000        5.1983200
       4374.6200        49.055900        5.0626500
       4445.3700        48.842500        4.9295200
       4517.2700        48.603800        4.7990300
       4590.3300        48.334400        4.6710300
       4664.5800        48.026600        4.5452900
       4740.0300        47.669600        4.4221100
       4816.6900        47.247300        4.3012500
       4894.6000        46.733400        4.1826900
       4973.7700        46.081400        4.0663800
       5054.2100        45.195100        3.9522400
       5135.9600        43.813200        3.8403000
       5219.0300        40.439300        3.7305800
       5246.9000        26.816400        3.6948600
       5247.1000        26.817400        11.301800
       5303.4400        42.131000        11.089100
       5389.2200        44.136200        10.777100
       5476.3900        44.827200        10.474000
       5564.9700        44.634000        10.179300
       5623.5000        37.649600        9.9916600
       5623.7000        37.653500        13.718500
       5654.9800        44.492600        13.591700
       5746.4400        46.540200        13.231500
       5839.3900        47.439000        12.880900
       5933.8300        47.782200        12.539400
       5988.7000        44.852100        12.347600
       5988.9000        44.855800        14.077600
       6029.8100        48.247400        13.943200
       6127.3300        49.481700        13.631400
       6226.4400        50.271600        13.323900
       6327.1500        50.899200        13.020500
       6429.4800        51.429300        12.721600
       6533.4800        51.890000        12.426900
       6639.1500        52.297100        12.136700
       6746.5400        52.660900        11.851300
       6855.6500        52.988500        11.570400
       6966.5400        53.285300        11.294300
       7079.2200        53.555000        11.022800
       7193.7200        53.801100        10.756200
       7310.0700        54.026200        10.494500
       7428.3100        54.232500        10.237500
       7548.4500        54.421600        9.9852500
       7670.5400        54.595100        9.7379100
       7794.6100        54.754500        9.4954600
       7920.6800        54.900900        9.2579900
       8048.7900        55.035600        9.0250100
       8178.9800        55.159200        8.7968900
       8311.2600        55.272500        8.5734300
       8445.6900        55.376400        8.3548500
       8582.2900        55.471700        8.1409400
       8721.1100        55.558900        7.9314000
       8862.1600        55.638300        7.7265300
       9005.5000        55.710700        7.5263600
       9151.1600        55.776600        7.3303400
       9299.1700        55.836300        7.1388600
       9449.5800        55.890100        6.9516400
       9602.4200        55.938500        6.7688300
       9757.7300        55.981900        6.5902000
       9915.5500        56.020500        6.4158000
       10075.900        56.054800        6.2454600
       10238.900        56.084800        6.0791500
       10404.500        56.111000        5.9168200
       10572.800        56.133500        5.7583800
       10743.800        56.152600        5.6037900
       10917.600        56.168400        5.4529500
       11094.200        56.181300        5.3058200
       11273.600        56.191300        5.1623100
       11455.900        56.198600        5.0223600
       11641.200        56.203500        4.8859100
       11829.500        56.206000        4.7528700
       12020.800        56.206400        4.6232000
       12215.300        56.204700        4.4968100
       12412.800        56.201100        4.3736400
       12613.600        56.195700        4.2536200
       12817.600        56.188700        4.1366900
       13025.000        56.180000        4.0227800
       13235.600        56.169900        3.9118200
       13449.700        56.158500        3.8037600
       13667.200        56.145700        3.6985100
       13888.300        56.131800        3.5960400
       14112.900        56.116700        3.4962600
       14341.200        56.100700        3.3991200
       14573.100        56.083600        3.3045600
       14808.900        56.065600        3.2125200
       15048.400        56.046800        3.1229300
       15291.800        56.027300        3.0357500
       15539.100        56.007000        2.9509100
       15790.400        55.986000        2.8683600
       16045.800        55.964300        2.7880500
       16305.400        55.942100        2.7099100
       16569.100        55.919300        2.6338900
       16837.100        55.896100        2.5599500
       17109.400        55.872300        2.4880400
       17386.100        55.848100        2.4180900
       17667.400        55.823400        2.3500600
       17953.100        55.798400        2.2839100
       18243.500        55.772900        2.2195900
       18538.600        55.747100        2.1570400
       18838.400        55.721000        2.0962300
       19143.100        55.694500        2.0371100
       19452.700        55.667700        1.9796400
       19767.400        55.640600        1.9237700
       20087.100        55.613100        1.8694600
       20412.000        55.585300        1.8166700
       20742.100        55.557300        1.7653600
       21077.600        55.528800        1.7154900
       21418.500        55.500100        1.6670300
       21765.000        55.471000        1.6199300
       22117.000        55.441500        1.5741700
       22474.700        55.411700        1.5297000
       22838.200        55.381400        1.4864800
       23207.600        55.350700        1.4445000
       23583.000        55.319500        1.4037100
       23964.400        55.287700        1.3640700
       24352.000        55.255400        1.3255700
       24745.900        55.222400        1.2881700
       25146.200        55.188700        1.2518300
       25552.900        55.154300        1.2165300
       25966.200        55.118900        1.1822400
       26386.100        55.082600        1.1489400
       26812.900        55.045100        1.1165900
       27246.600        55.006400        1.0851700
       27687.300        54.966200        1.0546500
       28135.100        54.924400        1.0250100
       28590.200        54.880800       0.99623100
       29052.600        54.835100       0.96827600
       29522.500        54.789500       0.94112800
       30000.000        54.727200       0.91476500
       30400.000        54.621700       0.85772900
       30800.000        54.574900       0.83757200
       31200.000        54.525600       0.81813900
       31500.000        54.486700       0.80401900
       31700.000        54.459800       0.79489500
       31900.000        54.432000       0.78577200
       32100.000        54.403300       0.77695900
       32300.000        54.373500       0.76814700
       32450.000        54.350400       0.76173500
       32600.000        54.326700       0.75532400
       32800.000        54.293800       0.74703100
       33000.000        54.259600       0.73873700
       33200.000        54.223700       0.73072100
       33400.000        54.186200       0.72270600
       33600.000        54.146700       0.71495700
       33800.000        54.105100       0.70720900
       33950.000        54.072300       0.70155800
       34100.000        54.038000       0.69590700
       34300.000        53.989800       0.68857000
       34500.000        53.938200       0.68123300
       34600.000        53.911000       0.67768300
       34700.000        53.882800       0.67413200
       34800.000        53.853500       0.67058200
       34900.000        53.823000       0.66703200
       35000.000        53.791300       0.66359500
       35100.000        53.758100       0.66015800
       35200.000        53.723400       0.65672100
       35300.000        53.687000       0.65328400
       35400.000        53.648800       0.64995500
       35500.000        53.608500       0.64662600
       35600.000        53.566000       0.64329800
       35700.000        53.521000       0.63996900
       35800.000        53.473200       0.63673500
       35900.000        53.422200       0.63350200
       35970.000        53.384400       0.63123800
       36030.000        53.350400       0.62929800
       36070.000        53.326900       0.62803000
       36120.000        53.296500       0.62644400
       36200.000        53.245300       0.62390800
       36250.000        53.211400       0.62234500
       36300.000        53.176000       0.62078300
       36350.000        53.139000       0.61922000
       36400.000        53.100200       0.61765800
       36440.000        53.067700       0.61643200
       36480.000        53.033800       0.61520600
       36510.000        53.007400       0.61428600
       36550.000        52.970800       0.61306000
       36590.000        52.932400       0.61183400
       36630.000        52.892100       0.61060800
       36670.000        52.849600       0.60938200
       36700.000        52.816300       0.60846200
       36750.000        52.757500       0.60699000
       36800.000        52.694200       0.60551700
       36850.000        52.625500       0.60404500
       36880.000        52.581400       0.60316200
       36900.000        52.550600       0.60257300
       36930.000        52.502100       0.60169000
       36950.000        52.468200       0.60110100
       36980.000        52.414500       0.60021700
       37000.000        52.376700       0.59962800
       37020.000        52.337200       0.59903900
       37050.000        52.274100       0.59815600
       37080.000        52.205900       0.59727300
       37100.000        52.157200       0.59668400
       37130.000        52.078500       0.59580000
       37150.000        52.021700       0.59521200
       37170.000        51.960800       0.59462300
       37185.000        51.912100       0.59418100
       37200.000        51.860500       0.59373900
       37215.000        51.805700       0.59329800
       37230.000        51.747100       0.59285600
       37240.000        51.705700       0.59256100
       37250.000        51.662200       0.59226700
       37260.000        51.616500       0.59197300
       37270.000        51.568300       0.59167800
       37285.000        51.490400       0.59123600
       37300.000        51.405100       0.59079500
       37308.000        51.355900       0.59055900
       37315.000        51.310400       0.59035300
       37323.000        51.255500       0.59011700
       37330.000        51.204400       0.58991100
       37340.000        51.126000       0.58961700
       37350.000        51.039900       0.58932200
       37355.000        50.993400       0.58917500
       37360.000        50.944500       0.58902800
       37365.000        50.892600       0.58888100
       37370.000        50.837600       0.58873400
       37375.000        50.779000       0.58858600
       37380.000        50.716200       0.58843900
       37385.000        50.648600       0.58829200
       37390.000        50.575600       0.58814500
       37395.000        50.496000       0.58799700
       37400.000        50.408700       0.58785000
       37405.000        50.312000       0.58770300
       37408.000        50.248500       0.58761500
       37410.000        50.203600       0.58755600
       37413.000        50.131600       0.58746700
       37415.000        50.080300       0.58740800
       37418.000        49.997200       0.58732000
       37420.000        49.937300       0.58726100
       37423.000        49.839200       0.58717300
       37425.000        49.767200       0.58711400
       37428.000        49.647400       0.58702600
       37430.000        49.557600       0.58696700
       37433.000        49.403400       0.58687800
       37435.000        49.283800       0.58682000
       37436.000        49.217500       0.58679000
       37437.000        49.145900       0.58676100
       37438.000        49.068200       0.58673100
       37439.000        48.982900       0.58670200
       37440.500        48.838400       0.58665800
       37442.000        48.665800       0.58661300
       37443.000        48.529500       0.58658400
       37444.000        48.369200       0.58655500
       37445.000        48.175200       0.58652500
       37445.500        48.060300       0.58651000
       37446.000        47.928700       0.58649600
       37446.600        47.743100       0.58647800
       37447.200        47.510400       0.58646000
       37447.800        47.201500       0.58644300
       37448.400        46.758900       0.58642500
       37448.400        46.747500       0.58642500
       37448.500        46.713100       0.69631700
       37448.700        46.617500       0.91610100
       37449.100        46.340100        1.3556700
       37449.500        45.881100       0.97102600
       37449.900        45.003800       0.58638200
       37450.000        44.595300       0.58637800
       37450.200        44.013600       0.58637400
       37450.500        45.486000        6.1150900
       37450.900        47.447000        13.486700
       37451.300        49.363800        7.0365200
       37451.700        50.737800       0.58633100
       37451.800        50.142400       0.58632600
       37452.000        49.241300       0.58632100
       37452.400        48.648300       0.58630900
       37452.700        48.362700        3.7190300
       37453.100        48.156200       0.91569300
       37453.500        47.947300        1.4070100
       37454.100        47.471700        2.8029500
       37454.700        47.731400        3.5077300
       37455.400        48.328600        3.4949400
       37456.000        48.497400        3.4839400
       37456.500        48.601300        3.4757200
       37457.000        48.690100        3.4675000
       37457.500        48.765300        3.4593200
       37458.000        48.831400        3.4511400
       37458.500        48.890400        3.4449600
       37459.000        48.944700        3.4387900
       37459.500        48.994200        3.4326200
       37460.000        49.040100        3.4264500
       37460.500        49.081700        3.4225800
       37461.000        49.121400        3.4187100
       37461.500        49.158600        3.4148200
       37462.000        49.193800        3.4109300
       37462.500        49.226400        3.4091400
       37463.000        49.258000        3.4073500
       37464.000        49.317100        3.4037500
       37465.000        49.371200        3.4034600
       37466.000        49.422000        3.4031700
       37467.000        49.469200        3.4053500
       37468.000        49.514700        3.4075400
       37469.000        49.557600        3.4112200
       37470.000        49.599300        3.4149000
       37472.000        49.678900        3.4238800
       37473.500        49.735600        3.4308100
       37475.000        49.790700        3.4377500
       37476.500        49.843600        3.4435800
       37478.000        49.895100        3.4494100
       37480.000        49.961500        3.4551700
       37483.000        50.054400        3.4604400
       37485.000        50.112800        3.4618200
       37487.000        50.167900        3.4617800
       37490.000        50.244000        3.4596700
       37493.000        50.313300        3.4560200
       37495.000        50.356200        3.4535900
       37498.000        50.415800        3.4496400
       37500.000        50.452500        3.4470100
       37503.000        50.504400        3.4444200
       37505.000        50.536700        3.4426900
       37510.000        50.612400        3.4412400
       37515.000        50.682600        3.4422100
       37520.000        50.749000        3.4443100
       37525.000        50.812200        3.4461200
       37530.000        50.872700        3.4479400
       37535.000        50.930100        3.4477400
       37540.000        50.984100        3.4475400
       37545.000        51.035100        3.4460100
       37550.000        51.082400        3.4444900
       37555.000        51.127200        3.4436900
       37560.000        51.170100        3.4428900
       37570.000        51.249500        3.4413000
       37578.000        51.308500        3.4418000
       37585.000        51.358200        3.4422300
       37593.000        51.412400        3.4419700
       37600.000        51.457600        3.4417500
       37615.000        51.547800        3.4398400
       37630.000        51.629700        3.4379200
       37640.000        51.680800        3.4366500
       37650.000        51.729300        3.4353700
       37660.000        51.775500        3.4338700
       37670.000        51.819400        3.4323600
       37685.000        51.881800        3.4301100
       37700.000        51.940300        3.4278500
       37715.000        51.995400        3.4255900
       37730.000        52.047400        3.4233400
       37750.000        52.112700        3.4203300
       37770.000        52.173600        3.4173200
       37800.000        52.257800        3.4128100
       37820.000        52.309900        3.4110000
       37840.000        52.359900        3.4092000
       37860.000        52.407800        3.4074000
       37880.000        52.453900        3.4055900
       37910.000        52.519500        3.4019900
       37950.000        52.601000        3.3971900
       37990.000        52.676500        3.3909900
       38030.000        52.746300        3.3847900
       38070.000        52.811100        3.3780900
       38100.000        52.856400        3.3730600
       38140.000        52.913600        3.3675100
       38180.000        52.967900        3.3619700
       38220.000        53.019300        3.3564200
       38250.000        53.055800        3.3522600
       38290.000        53.102600        3.3479500
       38330.000        53.147800        3.3436400
       38360.000        53.180700        3.3404000
       38400.000        53.223200        3.3360900
       38480.000        53.303700        3.3269900
       38550.000        53.370200        3.3190300
       38630.000        53.441600        3.3084200
       38700.000        53.500400        3.2991400
       38750.000        53.540500        3.2917700
       38800.000        53.578800        3.2844000
       38850.000        53.615600        3.2770300
       38900.000        53.651000        3.2696600
       38950.000        53.685200        3.2621900
       39000.000        53.718100        3.2547300
       39050.000        53.749800        3.2472700
       39100.000        53.780300        3.2398000
       39180.000        53.827300        3.2284100
       39250.000        53.866500        3.2184500
       39330.000        53.909400        3.2070600
       39400.000        53.945200        3.1971000
       39480.000        53.984500        3.1865600
       39550.000        54.017700        3.1773400
       39630.000        54.054300        3.1668000
       39700.000        54.084800        3.1575800
       39770.000        54.114700        3.1491900
       39850.000        54.148000        3.1396000
       39920.000        54.176400        3.1312100
       40000.000        54.208200        3.1216200
       40100.000        54.246700        3.1093200
       40200.000        54.283400        3.0970300
       40300.000        54.318700        3.0847400
       40400.000        54.352700        3.0724400
       40500.000        54.385400        3.0601400
       40600.000        54.417100        3.0478500
       40700.000        54.447700        3.0355500
       40800.000        54.477300        3.0232600
       40950.000        54.520000        3.0056800
       41100.000        54.560700        2.9881000
       41200.000        54.586800        2.9763900
       41300.000        54.612200        2.9646700
       41400.000        54.636900        2.9529500
       41500.000        54.661000        2.9412300
       41600.000        54.684300        2.9300500
       41700.000        54.707000        2.9188700
       41900.000        54.750700        2.8965200
       42100.000        54.792300        2.8741600
       42300.000        54.831900        2.8518100
       42450.000        54.860300        2.8358100
       42600.000        54.887800        2.8198000
       42800.000        54.923100        2.7984700
       43000.000        54.957100        2.7771300
       43200.000        54.989600        2.7563300
       43400.000        55.020500        2.7355400
       43600.000        55.050100        2.7147400
       43800.000        55.078500        2.6939400
       43950.000        55.099000        2.6790400
       44100.000        55.119000        2.6641300
       44300.000        55.144600        2.6442600
       44500.000        55.169200        2.6243900
       44700.000        55.192800        2.6055300
       44900.000        55.215600        2.5866600
       45100.000        55.237300        2.5678000
       45300.000        55.258400        2.5489400
       45450.000        55.273800        2.5355700
       45600.000        55.288900        2.5222000
       45800.000        55.308500        2.5043700
       46000.000        55.327400        2.4865400
       46150.000        55.341200        2.4736200
       46300.000        55.354700        2.4607000
       46500.000        55.372200        2.4434800
       46800.000        55.397500        2.4183600
       47000.000        55.413800        2.4016100
       47300.000        55.437300        2.3775100
       47500.000        55.452400        2.3614400
       47800.000        55.474400        2.3373400
       48000.000        55.488700        2.3212700
       48300.000        55.509300        2.2979600
       48500.000        55.522500        2.2824200
       48800.000        55.541500        2.2591200
       49000.000        55.553700        2.2435800
       49300.000        55.571400        2.2212100
       49500.000        55.582800        2.2063000
       49800.000        55.599300        2.1845100
       49900.000        55.604700        2.1772500
       50000.000        55.610100        2.1699900
       50300.000        55.625700        2.1487200
       50500.000        55.635600        2.1345400
       50800.000        55.650000        2.1132700
       51000.000        55.659200        2.0990900
       51300.000        55.672600        2.0789100
       51500.000        55.681200        2.0654500
       51800.000        55.693700        2.0452700
       52000.000        55.701800        2.0318100
       52300.000        55.713500        2.0126400
       52500.000        55.721100        1.9998600
       52800.000        55.732200        1.9806900
       53000.000        55.739300        1.9679100
       53300.000        55.749800        1.9495300
       53500.000        55.756400        1.9372700
       53800.000        55.766100        1.9188900
       54000.000        55.772400        1.9066300
       54300.000        55.781500        1.8891400
       54500.000        55.787400        1.8774800
       55000.000        55.801700        1.8483300
       55300.000        55.809900        1.8313800
       55500.000        55.815100        1.8200800
       55800.000        55.822700        1.8031300
       56000.000        55.827500        1.7918300
       56400.000        55.836800        1.7702000
       56800.000        55.845600        1.7485700
       57200.000        55.853900        1.7277200
       57530.000        55.860500        1.7105200
       57800.000        55.865700        1.6968400
       58000.000        55.869500        1.6867100
       58500.000        55.878400        1.6617600
       59000.000        55.886600        1.6376900
       59540.000        55.894900        1.6116900
       59800.000        55.898600        1.5995400
       60000.000        55.901400        1.5903000
       60800.000        55.911800        1.5544300
       61500.000        55.920200        1.5240900
       62300.000        55.928800        1.4905500
       63000.000        55.935800        1.4621400
       64000.000        55.944600        1.4230200
       65000.000        55.952500        1.3855300
       65900.000        55.958700        1.3529500
       66830.000        55.964300        1.3205300
       67400.000        55.967500        1.3012600
       68000.000        55.970600        1.2814600
       69000.000        55.975200        1.2491100
       70000.000        55.979000        1.2180300
       71000.000        55.982200        1.1878400
       72000.000        55.984600        1.1588200
       73500.000        55.987300        1.1172700
       74960.000        55.988800        1.0789600
       75500.000        55.989100        1.0653300
       76000.000        55.989400        1.0529400
       77110.000        55.989600        1.0262300
       78600.000        55.989300       0.99200500
       79300.000        55.988900       0.97654000
       80000.000        55.988600       0.96144900
       81500.000        55.987100       0.93018000
       83000.000        55.985600       0.90047100
       84000.000        55.984200       0.88148000
       85000.000        55.982900       0.86310800
       86500.000        55.980300       0.83637400
       88000.000        55.977700       0.81090700
       89000.000        55.975700       0.79459300
       90000.000        55.973700       0.77878400
       91500.000        55.970300       0.75584800
       93000.000        55.967000       0.73394500
       94000.000        55.964500       0.71988600
       95000.000        55.962100       0.70624000
       96500.000        55.958400       0.68649000
       98000.000        55.954600       0.66758500
       99000.000        55.952000       0.65542600
       99500.000        55.950800       0.64947600
       100000.00        55.949500       0.64360800
