;  Atomic scattering factors for Cd.
;   
;  Concatenation of data from CXRO <http://www-cxro.lbl.gov>
;  and LLNL <http://www-phys.llnl.gov/V_Div/scattering/asf.html>
;  
;  E (eV) f1 f2
;---------------
       10.000000       -9999.0000       0.40003900
       10.161700       -9999.0000       0.41841900
       10.326100       -9999.0000       0.43764400
       10.493100       -9999.0000       0.45775200
       10.662800       -9999.0000       0.49361500
       10.835300       -9999.0000       0.53685100
       11.010600       -9999.0000       0.59257800
       11.188600       -9999.0000       0.66328200
       11.369600       -9999.0000       0.74242000
       11.553500       -9999.0000       0.86125500
       11.740400       -9999.0000       0.99374600
       11.930300       -9999.0000        1.0440800
       12.123200       -9999.0000        1.0969600
       12.319300       -9999.0000        1.1525200
       12.518600       -9999.0000        1.2109000
       12.721000       -9999.0000        1.2722300
       12.926800       -9999.0000        1.3170000
       13.135900       -9999.0000        1.3551800
       13.348300       -9999.0000        1.3944700
       13.564200       -9999.0000        1.4349000
       13.783600       -9999.0000        1.4667500
       14.006600       -9999.0000        1.4950300
       14.233100       -9999.0000        1.5238600
       14.463300       -9999.0000        1.5532400
       14.697300       -9999.0000        1.5831900
       14.935000       -9999.0000        1.6138600
       15.176500       -9999.0000        1.6518900
       15.422000       -9999.0000        1.6908200
       15.671400       -9999.0000        1.7306800
       15.924900       -9999.0000        1.7714600
       16.182500       -9999.0000        1.8132200
       16.444200       -9999.0000        1.8559500
       16.710200       -9999.0000        1.8996900
       16.980500       -9999.0000        1.9444700
       17.255100       -9999.0000        1.9903000
       17.534200       -9999.0000        2.0372000
       17.817800       -9999.0000        2.0852200
       18.106000       -9999.0000        2.1343700
       18.398900       -9999.0000        2.1846700
       18.696400       -9999.0000        2.2361600
       18.998800       -9999.0000        2.3033500
       19.306100       -9999.0000        2.3830000
       19.618400       -9999.0000        2.4654100
       19.935700       -9999.0000        2.5506700
       20.258200       -9999.0000        2.6388800
       20.585800       -9999.0000        2.7301300
       20.918800       -9999.0000        2.8245500
       21.257100       -9999.0000        2.9363400
       21.600900       -9999.0000        3.0645700
       21.950300       -9999.0000        3.1984100
       22.305300       -9999.0000        3.3380800
       22.666100       -9999.0000        3.4838500
       23.032700       -9999.0000        3.6359900
       23.405300       -9999.0000        3.7947800
       23.783800       -9999.0000        3.9605000
       24.168500       -9999.0000        4.1036200
       24.559400       -9999.0000        4.2496500
       24.956600       -9999.0000        4.4008800
       25.360300       -9999.0000        4.5574900
       25.770500       -9999.0000        4.7196700
       26.187300       -9999.0000        4.8876200
       26.610900       -9999.0000        5.0615500
       27.041300       -9999.0000        5.2164500
       27.478600       -9999.0000        5.3727100
       27.923100       -9999.0000        5.5336600
       28.374700       -9999.0000        5.6994200
       28.833700       -9999.0000        5.8701600
       29.300000        1.9213200        6.0460000
       29.773900        1.9587000        6.2271200
       30.255500        2.0034700        6.4136600
       30.744900        2.0588700        6.6057900
       31.242100        2.1318800        6.8036800
       31.747500        2.2299500        6.9760800
       32.260900        2.3095500        7.1337100
       32.782700        2.3838600        7.2949100
       33.313000        2.4575000        7.4597400
       33.851800        2.5326200        7.6283000
       34.399300        2.6107700        7.8006700
       34.955700        2.6935400        7.9769300
       35.521100        2.7832900        8.1571800
       36.095600        2.8867300        8.3415000
       36.679400        2.9981000        8.5037000
       37.272700        3.1009200        8.6657200
       37.875500        3.2015500        8.8308200
       38.488200        3.3032600        8.9990700
       39.110700        3.4071000        9.1705200
       39.743200        3.5139000        9.3452400
       40.386100        3.6243600        9.5232900
       41.039300        3.7393800        9.7047400
       41.703100        3.8595400        9.8886400
       42.377600        3.9844800        10.075700
       43.063000        4.1152300        10.266200
       43.759500        4.2528000        10.460400
       44.467300        4.3983100        10.658300
       45.186500        4.5532300        10.859900
       45.917400        4.7196800        11.065300
       46.660000        4.9045800        11.274600
       47.414700        5.1253600        11.475700
       48.181600        5.3380100        11.632300
       48.960900        5.5375300        11.791000
       49.752800        5.7352200        11.951800
       50.557600        5.9343200        12.114900
       51.375300        6.1367300        12.280200
       52.206200        6.3439600        12.447800
       53.050600        6.5575200        12.617600
       53.908700        6.7796200        12.789800
       54.780600        7.0155600        12.959900
       55.666700        7.2539100        13.121300
       56.567000        7.4960000        13.284700
       57.482000        7.7447800        13.450100
       58.411700        8.0024300        13.617600
       59.356400        8.2708800        13.787200
       60.316500        8.5525600        13.958900
       61.292100        8.8508300        14.132700
       62.283400        9.1728800        14.308700
       63.290800        9.5379700        14.486900
       64.314500        9.9509400        14.589300
       65.354700        10.317000        14.648000
       66.411800        10.665100        14.706900
       67.485900        11.007400        14.766000
       68.577500        11.350300        14.825400
       69.686700        11.700500        14.885000
       70.813800        12.063000        14.928100
       71.959100        12.415700        14.959600
       73.123000        12.767200        14.991100
       74.305700        13.122200        15.022700
       75.507600        13.484200        15.054400
       76.728900        13.858000        15.086100
       77.969900        14.255800        15.117900
       79.231000        14.661600        15.106300
       80.512500        15.061200        15.093200
       81.814700        15.464200        15.080100
       83.138000        15.879100        15.067100
       84.482700        16.312600        15.054000
       85.849100        16.780400        15.041000
       87.237700        17.338800        14.980900
       88.648700        17.851000        14.834200
       90.082500        18.339800        14.689000
       91.539500        18.847500        14.545100
       93.020100        19.431600        14.402700
       94.524600        20.033800        14.081500
       96.053500        20.549400        13.728900
       97.607100        21.043600        13.385200
       99.185800        21.568800        13.050100
       100.79000        22.262600        12.663600
       102.42000        22.793800        11.862300
       104.07700        23.119500        11.111600
       105.76000        23.320900        10.408500
       107.47100        23.453000        9.7498300
       109.20900        23.538400        9.1328700
       110.97500        23.600200        8.5549500
       112.77000        23.692700        8.0135900
       114.59400        23.788700        7.3322100
       116.44800        23.707200        6.6255500
       118.33100        23.529800        5.9870100
       120.24500        23.293500        5.4099900
       122.19000        23.010900        4.8885900
       124.16600        22.681600        4.4174500
       126.17500        22.258500        4.0514800
       128.21500        21.929000        3.8275700
       130.28900        21.652600        3.6160400
       132.39700        21.405300        3.4162000
       134.53800        21.183300        3.2273900
       136.71400        21.022600        3.0490300
       138.92500        20.832900        2.7406900
       141.17200        20.550400        2.4522100
       143.45600        20.182800        2.2298300
       145.77600        19.850300        2.0954700
       148.13400        19.509800        1.9767100
       150.53000        19.196700        1.9307800
       152.96400        18.908700        1.8859200
       155.43900        18.612600        1.8542900
       157.95300        18.338500        1.8519300
       160.50700        18.072900        1.8495700
       163.10300        17.771100        1.8725000
       165.74200        17.512400        1.9669200
       168.42200        17.284900        2.0701800
       171.14600        17.089100        2.1871000
       173.91500        16.921000        2.3106300
       176.72700        16.791000        2.4411300
       179.58600        16.686700        2.5374200
       182.49100        16.575000        2.6215500
       185.44200        16.464100        2.7084700
       188.44200        16.357900        2.7982700
       191.48900        16.257600        2.8910500
       194.58700        16.164200        2.9869100
       197.73400        16.078700        3.0859400
       200.93200        16.003000        3.1882600
       204.18200        15.944500        3.2939700
       207.48500        15.891300        3.3762800
       210.84000        15.835400        3.4596300
       214.25100        15.779400        3.5450300
       217.71600        15.726900        3.6325500
       221.23700        15.679000        3.7222200
       224.81600        15.637500        3.8141000
       228.45200        15.605400        3.9082500
       232.14700        15.593600        4.0047300
       235.90200        15.591300        4.0629800
       239.71700        15.574400        4.1117200
       243.59500        15.546700        4.1610500
       247.53500        15.515600        4.2109700
       251.53800        15.482600        4.2614800
       255.60700        15.449100        4.3126000
       259.74100        15.416900        4.3643400
       263.94200        15.388400        4.4167000
       268.21100        15.390200        4.4552400
       272.54900        15.367700        4.4572500
       276.95700        15.320500        4.4592500
       281.43700        15.261600        4.4612600
       285.98900        15.192000        4.4632700
       290.61500        15.112300        4.4652800
       295.31500        15.022700        4.4672900
       300.09200        14.923400        4.4693100
       304.94500        14.814600        4.4713200
       309.87800        14.699000        4.4731400
       314.89000        14.568400        4.4626600
       319.98300        14.419400        4.4522100
       325.15800        14.251700        4.4417800
       330.41800        14.064900        4.4313700
       335.76200        13.857000        4.4209900
       341.19200        13.624700        4.4106300
       346.71100        13.365000        4.4044000
       352.31900        13.078600        4.4009100
       358.01700        12.760600        4.3974300
       363.80800        12.402500        4.3939600
       369.69200        11.993000        4.3904800
       375.67200        11.498000        4.3960900
       381.74800        10.966700        4.4747800
       387.92200        10.391300        4.5548800
       394.19700        9.7417200        4.6364100
       400.57300        8.9872100        4.7194000
       405.10000        8.6868600        4.7784200
       405.30000        8.6223600        4.3228800
       407.05200        7.7904500        4.5216800
       413.63500        6.3690900        5.3451400
       420.32600        5.1879100        6.3185800
       427.12400        4.0931500        7.4692600
       434.03200        3.0534500        8.8295400
       441.05200        2.1052400        10.437500
       448.18600        1.2754700        12.338300
       455.43500       0.66441200        14.570000
       462.80200       0.35155300        17.190900
       470.28700       0.60195000        20.283100
       477.89400        2.2133800        23.683500
       485.62300        4.9157000        26.015400
       493.47800        7.8815300        26.920600
       501.45900        10.146000        27.007500
       509.57000        11.834400        27.094700
       517.81200        13.484600        27.182100
       526.18700        14.934000        26.839100
       534.69800        16.090800        26.462400
       543.34600        17.004200        26.091000
       552.13400        17.713400        25.724800
       561.06500        18.117900        25.542800
       570.13900        18.600400        25.634200
       579.36100        19.204700        25.725900
       588.73200        19.824100        25.817900
       598.25400        20.456000        25.910300
       607.93000        21.106200        26.002900
       617.76300        21.779400        26.060600
       627.75500        22.432900        26.087500
       637.90800        23.065400        26.114400
       648.22600        23.694000        26.141300
       658.71100        24.323300        26.168300
       669.36500        24.958400        26.195200
       680.19100        25.624200        26.222200
       691.19300        26.313300        26.200000
       702.37200        26.971300        26.134900
       713.73300        27.611700        26.070000
       725.27700        28.249900        26.005200
       737.00800        28.893500        25.940600
       748.92800        29.599500        25.876200
       761.04200        30.299900        25.701600
       773.35100        30.950300        25.511800
       785.85900        31.585800        25.323400
       798.57000        32.227400        25.136400
       811.48600        32.919500        24.950700
       824.61100        33.657900        24.614400
       837.94900        34.292900        24.175100
       851.50200        34.816800        23.751900
       865.27400        35.293700        23.346800
       879.26900        35.744700        22.958300
       893.49100        36.173800        22.576200
       907.94300        36.584200        22.200300
       922.62800        36.984700        21.830600
       937.55100        37.367400        21.446600
       952.71500        37.729600        21.064200
       968.12400        38.070500        20.684100
       983.78300        38.397000        20.310900
       999.69500        38.715300        19.939900
       1015.8600        39.034300        19.570900
       1032.2900        39.330200        19.167000
       1048.9900        39.598300        18.766600
       1065.9600        39.839400        18.369800
       1083.2000        40.059700        17.981300
       1100.7200        40.262700        17.601200
       1118.5200        40.450700        17.229200
       1136.6100        40.624900        16.864900
       1155.0000        40.786600        16.508300
       1173.6800        40.936600        16.159200
       1192.6600        41.075800        15.817600
       1211.9500        41.204800        15.483100
       1231.5500        41.324200        15.155700
       1251.4700        41.434300        14.835700
       1271.7200        41.536000        14.523100
       1292.2900        41.630500        14.217900
       1313.1900        41.718000        13.918800
       1334.4300        41.798400        13.626000
       1356.0100        41.872000        13.339400
       1377.9400        41.939000        13.058900
       1400.2300        41.999500        12.784300
       1422.8800        42.053300        12.515500
       1445.8900        42.100000        12.252400
       1469.2800        42.137800        11.996900
       1493.0400        42.166600        11.749900
       1517.1900        42.194700        11.521900
       1541.7300        42.225300        11.300200
       1566.6700        42.257100        11.082800
       1592.0100        42.288200        10.869700
       1617.7600        42.318500        10.660600
       1643.9200        42.347600        10.455400
       1670.5100        42.375900        10.254400
       1697.5300        42.403600        10.057100
       1724.9900        42.437900        9.8635100
       1752.8900        42.470100        9.6601500
       1781.2400        42.494300        9.4564000
       1810.0500        42.511300        9.2535000
       1839.3200        42.521100        9.0547400
       1869.0700        42.526200        8.8603100
       1899.3000        42.527200        8.6703100
       1930.0200        42.524700        8.4843500
       1961.2400        42.519100        8.3023500
       1992.9600        42.508400        8.1241300
       2025.2000        42.505500        7.9565100
       2057.9500        42.501000        7.7757700
       2091.2400        42.486700        7.5969300
       2125.0600        42.467200        7.4203700
       2159.4300        42.442500        7.2455100
       2194.3600        42.412700        7.0729400
       2229.8500        42.377700        6.9021200
       2265.9200        42.337400        6.7334700
       2302.5700        42.291400        6.5663700
       2339.8100        42.239300        6.4013500
       2377.6600        42.181300        6.2385300
       2416.1100        42.116800        6.0775100
       2455.1900        42.045300        5.9185100
       2494.9000        41.966700        5.7614800
       2535.2600        41.880300        5.6061700
       2576.2600        41.785200        5.4528500
       2617.9300        41.681100        5.3015100
       2660.2700        41.567000        5.1521200
       2703.3000        41.442000        5.0043800
       2747.0300        41.304800        4.8585300
       2791.4600        41.154000        4.7146500
       2836.6100        40.988000        4.5726800
       2882.4900        40.804800        4.4323800
       2929.1100        40.601700        4.2938600
       2976.4800        40.375200        4.1572500
       3024.6300        40.121400        4.0224800
       3073.5500        39.834800        3.8894100
       3123.2600        39.507600        3.7579100
       3173.7800        39.129200        3.6283100
       3225.1100        38.684200        3.5005700
       3277.2700        38.148800        3.3744800
       3330.2800        37.482100        3.2498100
       3384.1500        36.606300        3.1269600
       3438.8800        35.340900        3.0059400
       3494.5000        33.028500        2.8865500
       3537.4000        17.022800        2.7989500
       3537.6000        17.023200        11.038900
       3551.0200        29.859200        10.976900
       3608.4600        33.870100        10.717600
       3666.8200        34.719300        10.464800
       3726.1300        30.673000        10.218000
       3726.9000        28.071400        10.214800
       3727.1000        28.076600        14.018700
       3786.4000        36.571000        13.668000
       3847.6400        37.941000        13.320500
       3909.8700        38.734600        12.981200
       3973.1100        39.211500        12.650800
       4017.9000        35.810700        12.425000
       4018.1000        35.816400        14.462600
       4037.3800        39.205700        14.361100
       4102.6800        40.758200        14.025800
       4169.0300        41.657700        13.696600
       4236.4600        42.357200        13.373000
       4304.9800        42.942600        13.056300
       4374.6200        43.448700        12.744200
       4445.3700        43.893500        12.437900
       4517.2700        44.289800        12.137800
       4590.3300        44.645900        11.843000
       4664.5800        44.967600        11.553900
       4740.0300        45.259500        11.270500
       4816.6900        45.525400        10.992700
       4894.6000        45.768200        10.720500
       4973.7700        45.990400        10.453700
       5054.2100        46.193900        10.192600
       5135.9600        46.380700        9.9370500
       5219.0300        46.552200        9.6867600
       5303.4400        46.709800        9.4420500
       5389.2200        46.854500        9.2024400
       5476.3900        46.987400        8.9681800
       5564.9700        47.109700        8.7391700
       5654.9800        47.221800        8.5150600
       5746.4400        47.324600        8.2961300
       5839.3900        47.418800        8.0821100
       5933.8300        47.504900        7.8730700
       6029.8100        47.583600        7.6689800
       6127.3300        47.655500        7.4693400
       6226.4400        47.720800        7.2744900
       6327.1500        47.780000        7.0841300
       6429.4800        47.833500        6.8986100
       6533.4800        47.881900        6.7171300
       6639.1500        47.925200        6.5402200
       6746.5400        47.964000        6.3675600
       6855.6500        47.998500        6.1991200
       6966.5400        48.028800        6.0346300
       7079.2200        48.055300        5.8743000
       7193.7200        48.078300        5.7180400
       7310.0700        48.098100        5.5656400
       7428.3100        48.114800        5.4167300
       7548.4500        48.128400        5.2717700
       7670.5400        48.139200        5.1303600
       7794.6100        48.147600        4.9927800
       7920.6800        48.153600        4.8583800
       8048.7900        48.157300        4.7273900
       8178.9800        48.158900        4.5999100
       8311.2600        48.158500        4.4754800
       8445.6900        48.156100        4.3545800
       8582.2900        48.152300        4.2366100
       8721.1100        48.146800        4.1216700
       8862.1600        48.139700        4.0095900
       9005.5000        48.131000        3.9006700
       9151.1600        48.121300        3.7945500
       9299.1700        48.110400        3.6910000
       9449.5800        48.098000        3.5901500
       9602.4200        48.084700        3.4923300
       9757.7300        48.070700        3.3968700
       9915.5500        48.055500        3.3035600
       10075.900        48.039200        3.2130600
       10238.900        48.022200        3.1249600
       10404.500        48.004500        3.0392100
       10572.800        47.986100        2.9557300
       10743.800        47.967100        2.8744800
       10917.600        47.947400        2.7954000
       11094.200        47.927100        2.7184400
       11273.600        47.906300        2.6435400
       11455.900        47.885100        2.5706600
       11641.200        47.863300        2.4997300
       11829.500        47.841100        2.4307200
       12020.800        47.818500        2.3635700
       12215.300        47.795500        2.2982300
       12412.800        47.772100        2.2346600
       12613.600        47.748300        2.1728100
       12817.600        47.724200        2.1126400
       13025.000        47.699800        2.0541000
       13235.600        47.675100        1.9971600
       13449.700        47.650000        1.9417600
       13667.200        47.624700        1.8878700
       13888.300        47.599000        1.8354500
       14112.900        47.573100        1.7844700
       14341.200        47.546800        1.7348700
       14573.100        47.520200        1.6866300
       14808.900        47.493300        1.6397100
       15048.400        47.466100        1.5940700
       15291.800        47.438400        1.5496800
       15539.100        47.410500        1.5065100
       15790.400        47.382100        1.4645200
       16045.800        47.353300        1.4236900
       16305.400        47.324000        1.3839700
       16569.100        47.294200        1.3453500
       16837.100        47.263900        1.3077800
       17109.400        47.233000        1.2712500
       17386.100        47.201400        1.2357200
       17667.400        47.169100        1.2011700
       17953.100        47.136000        1.1675700
       18243.500        47.102000        1.1348900
       18538.600        47.067000        1.1031100
       18838.400        47.030800        1.0722100
       19143.100        46.993400        1.0421600
       19452.700        46.954600        1.0129300
       19767.400        46.914200       0.98450600
       20087.100        46.872000       0.95686500
       20412.000        46.827600       0.92998300
       20742.100        46.780800       0.90384200
       21077.600        46.731300       0.87841900
       21418.500        46.678400       0.85369600
       21765.000        46.621700       0.82965100
       22117.000        46.560400       0.80626800
       22474.700        46.493600       0.78352800
       22838.200        46.420000       0.76141200
       23207.600        46.338000       0.73990300
       23583.000        46.245300       0.71898400
       23964.400        46.138700       0.69864000
       24352.000        46.013300       0.67885300
       24745.900        45.861500       0.65961000
       25146.200        45.669700       0.64089300
       25552.900        45.411700       0.62268900
       25966.200        45.024000       0.60498300
       26386.100        44.269700       0.58776100
       26711.100        36.423900       0.57495400
       26711.300        36.424000        3.6539300
       26812.900        43.229500        3.6321500
       27246.600        44.925100        3.5415500
       27687.300        45.558600        3.4527700
       28135.100        45.961400        3.3657800
       28590.200        46.257500        3.2805800
       29052.600        46.490900        3.1971500
       29522.500        46.682700        3.1154800
       30000.000        46.844600        3.0355600
       30100.000        46.889500        2.9480200
       30200.000        46.917500        2.9321500
       30300.000        46.944700        2.9162700
       30400.000        46.971100        2.9004000
       30500.000        46.996600        2.8850700
       30600.000        47.021400        2.8697300
       30700.000        47.045400        2.8544000
       30800.000        47.068700        2.8390700
       30900.000        47.091300        2.8242500
       31000.000        47.113300        2.8094400
       31100.000        47.134600        2.7946200
       31200.000        47.155300        2.7798100
       31270.000        47.169400        2.7697400
       31350.000        47.185200        2.7582300
       31500.000        47.213900        2.7366600
       31600.000        47.232300        2.7229100
       31700.000        47.250400        2.7091500
       31800.000        47.268000        2.6954000
       31900.000        47.285200        2.6816500
       32000.000        47.302000        2.6683400
       32100.000        47.318400        2.6550300
       32200.000        47.334400        2.6417200
       32300.000        47.350100        2.6284100
       32450.000        47.372900        2.6090000
       32600.000        47.395000        2.5895900
       32800.000        47.423300        2.5644300
       33000.000        47.450400        2.5392700
       33100.000        47.463500        2.5270300
       33200.000        47.476400        2.5147900
       33300.000        47.488900        2.5025500
       33400.000        47.501200        2.4903100
       33600.000        47.525100        2.4665900
       33800.000        47.548100        2.4428700
       33950.000        47.564900        2.4255700
       34030.000        47.573700        2.4163400
       34100.000        47.581300        2.4082600
       34200.000        47.591800        2.3967300
       34300.000        47.602100        2.3851900
       34400.000        47.612200        2.3736600
       34500.000        47.622100        2.3621200
       34700.000        47.641200        2.3400800
       34900.000        47.659700        2.3180400
       35000.000        47.668700        2.3070200
       35100.000        47.677600        2.2960000
       35200.000        47.686200        2.2849800
       35300.000        47.694600        2.2739600
       35400.000        47.702900        2.2634600
       35500.000        47.711000        2.2529600
       35600.000        47.718900        2.2424600
       35700.000        47.726700        2.2319600
       35800.000        47.734300        2.2214600
       35900.000        47.741700        2.2109600
       36030.000        47.751300        2.1973100
       36160.000        47.760500        2.1842600
       36300.000        47.770300        2.1702000
       36400.000        47.777100        2.1601600
       36500.000        47.783900        2.1501200
       36650.000        47.793800        2.1353500
       36800.000        47.803400        2.1205800
       36900.000        47.809600        2.1107400
       37000.000        47.815600        2.1008900
       37300.000        47.833100        2.0724100
       37500.000        47.844100        2.0534300
       37800.000        47.859900        2.0259600
       38000.000        47.869900        2.0076400
       38300.000        47.884200        1.9814400
       38500.000        47.893400        1.9639700
       38800.000        47.906700        1.9386600
       39000.000        47.915300        1.9217800
       39300.000        47.927700        1.8971700
       39500.000        47.935600        1.8807700
       39800.000        47.947000        1.8569900
       40000.000        47.954500        1.8411300
       40200.000        47.961700        1.8256200
       40400.000        47.968500        1.8101200
       40600.000        47.975000        1.7946100
       40800.000        47.981300        1.7791100
       41100.000        47.990300        1.7570000
       41500.000        48.001700        1.7275100
       41900.000        48.012200        1.6991700
       42300.000        48.021900        1.6708200
       42600.000        48.028600        1.6505700
       43000.000        48.037000        1.6235800
       43400.000        48.044800        1.5979400
       43800.000        48.052000        1.5722900
       44100.000        48.057100        1.5539400
       44500.000        48.063400        1.5294700
       44900.000        48.069200        1.5061700
       45300.000        48.074600        1.4828600
       46000.000        48.083200        1.4440400
       46500.000        48.088800        1.4172900
       47000.000        48.093900        1.3913100
       47500.000        48.098600        1.3660800
       48000.000        48.103000        1.3415500
       48500.000        48.107000        1.3174700
       49000.000        48.110500        1.2940600
       49500.000        48.113700        1.2713000
       50000.000        48.116700        1.2491500
       50500.000        48.119400        1.2275500
       51000.000        48.121600        1.2059600
       51500.000        48.123500        1.1855100
       52000.000        48.125100        1.1650500
       53000.000        48.127600        1.1262700
       54000.000        48.129200        1.0892200
       55000.000        48.129900        1.0540300
       56000.000        48.130000        1.0205200
       56800.000        48.129600       0.99488900
       57530.000        48.129000       0.97236500
       58000.000        48.128500       0.95828100
       58500.000        48.127900       0.94364300
       59540.000        48.126300       0.91429100
       59800.000        48.125900       0.90717500
       60000.000        48.125500       0.90176000
       60800.000        48.123900       0.88033600
       61500.000        48.122500       0.86223100
       62300.000        48.120400       0.84223700
       63000.000        48.118700       0.82532600
       64000.000        48.115800       0.80206600
       65000.000        48.112900       0.77980700
       65900.000        48.110100       0.76038200
       66830.000        48.107100       0.74108400
       67400.000        48.105200       0.72962700
       68000.000        48.103100       0.71786100
       69000.000        48.099500       0.69889100
       70000.000        48.096000       0.68068500
       71000.000        48.092200       0.66316200
       72000.000        48.088500       0.64632500
       72800.000        48.085500       0.63332600
       73500.000        48.082800       0.62228000
       74200.000        48.080200       0.61152800
       74960.000        48.077400       0.60017700
       75500.000        48.075300       0.59225400
       76000.000        48.073400       0.58505800
       77110.000        48.069200       0.56955400
       78600.000        48.063600       0.54971800
       79300.000        48.060900       0.54076400
       80000.000        48.058300       0.53203200
       81500.000        48.052700       0.51392000
       83000.000        48.047100       0.49673800
       84000.000        48.043300       0.48576800
       85000.000        48.039600       0.47516700
       86500.000        48.034200       0.45990200
       88000.000        48.028900       0.44537800
       89000.000        48.025300       0.43608300
       90000.000        48.021700       0.42708200
       91500.000        48.016600       0.41404600
       93000.000        48.011600       0.40161000
       94000.000        48.008200       0.39363500
       95000.000        48.004800       0.38590000
       96500.000        48.000000       0.37468100
       98000.000        47.995100       0.36395400
       99000.000        47.992000       0.35706100
       99500.000        47.990500       0.35368900
       100000.00        47.988900       0.35036600
