;  Atomic scattering factors for Ce.
;   
;  Concatenation of data from CXRO <http://www-cxro.lbl.gov>
;  and LLNL <http://www-phys.llnl.gov/V_Div/scattering/asf.html>
;  
;  E (eV) f1 f2
;---------------
       10.000000       -9999.0000        1.2836900
       10.161700       -9999.0000        1.2638900
       10.326100       -9999.0000        1.2444100
       10.493100       -9999.0000        1.2252200
       10.662800       -9999.0000        1.2063200
       10.835300       -9999.0000        1.1877200
       11.010600       -9999.0000        1.1694100
       11.188600       -9999.0000        1.1513800
       11.369600       -9999.0000        1.1336200
       11.553500       -9999.0000        1.1161400
       11.740400       -9999.0000        1.0989300
       11.930300       -9999.0000        1.0819900
       12.123200       -9999.0000        1.0653000
       12.319300       -9999.0000        1.0488800
       12.518600       -9999.0000        1.0327000
       12.721000       -9999.0000        1.0167800
       12.926800       -9999.0000        1.0067600
       13.135900       -9999.0000        1.0003800
       13.348300       -9999.0000       0.99404000
       13.564200       -9999.0000       0.98773900
       13.783600       -9999.0000       0.98147900
       14.006600       -9999.0000       0.95600700
       14.233100       -9999.0000       0.92629500
       14.463300       -9999.0000       0.89750600
       14.697300       -9999.0000       0.86961200
       14.935000       -9999.0000       0.84717500
       15.176500       -9999.0000       0.82603800
       15.422000       -9999.0000       0.80543000
       15.671400       -9999.0000       0.78533600
       15.924900       -9999.0000       0.76803900
       16.182500       -9999.0000       0.75166000
       16.444200       -9999.0000       0.74310800
       16.710200       -9999.0000       0.73842600
       16.980500       -9999.0000       0.73377300
       17.255100       -9999.0000       0.73048800
       17.534200       -9999.0000       0.73259000
       17.817800       -9999.0000       0.73469800
       18.106000       -9999.0000       0.73834200
       18.398900       -9999.0000       0.75293900
       18.696400       -9999.0000       0.76782400
       18.998800       -9999.0000       0.78300400
       19.306100       -9999.0000       0.80233300
       19.618400       -9999.0000       0.83093700
       19.935700       -9999.0000       0.86056200
       20.258200       -9999.0000       0.89625300
       20.585800       -9999.0000       0.94754500
       20.918800       -9999.0000        1.0245300
       21.257100       -9999.0000        1.1640500
       21.600900       -9999.0000        1.3919700
       21.950300       -9999.0000        1.7428600
       22.305300       -9999.0000        2.2885500
       22.666100       -9999.0000        4.3097100
       23.032700       -9999.0000        9.1112200
       23.405300       -9999.0000        14.531800
       23.783800       -9999.0000        16.045800
       24.168500       -9999.0000        16.506700
       24.559400       -9999.0000        16.980700
       24.956600       -9999.0000        17.214200
       25.360300       -9999.0000        17.363700
       25.770500       -9999.0000        17.337000
       26.187300       -9999.0000        17.208700
       26.610900       -9999.0000        17.081200
       27.041300       -9999.0000        16.783400
       27.478600       -9999.0000        16.359000
       27.923100       -9999.0000        15.948400
       28.374700       -9999.0000        15.650400
       28.833700       -9999.0000        15.357900
       29.300000        6.5033500        14.861100
       29.773900        7.1077200        14.358000
       30.255500        7.6189500        13.817400
       30.744900        8.0217900        13.292800
       31.242100        8.3162000        12.832600
       31.747500        8.6346900        12.457300
       32.260900        8.9791500        12.092900
       32.782700        9.3816100        11.688400
       33.313000        9.6936400        11.153700
       33.851800        9.9100000        10.643500
       34.399300        10.063900        10.156600
       34.955700        10.162700        9.6919200
       35.521100        10.217300        9.2877700
       36.095600        10.273900        8.9134900
       36.679400        10.321200        8.5543000
       37.272700        10.354800        8.2095900
       37.875500        10.376300        7.8806400
       38.488200        10.388000        7.5648500
       39.110700        10.392300        7.2617300
       39.743200        10.397600        6.9707500
       40.386100        10.404900        6.6568800
       41.039300        10.373700        6.3425300
       41.703100        10.321000        6.0430400
       42.377600        10.258400        5.7405500
       43.063000        10.156700        5.4403400
       43.759500        10.015800        5.1558300
       44.467300        9.8106300        4.9260300
       45.186500        9.6493500        4.7666500
       45.917400        9.5125400        4.6124300
       46.660000        9.3800900        4.4632000
       47.414700        9.2481400        4.3262200
       48.181600        9.1240900        4.1968400
       48.960900        9.0055600        4.0713300
       49.752800        8.8969200        3.9443200
       50.557600        8.7754200        3.7959200
       51.375300        8.6352500        3.6531100
       52.206200        8.4769100        3.5156700
       53.050600        8.2885100        3.3967100
       53.908700        8.1120000        3.3210900
       54.780600        7.9467100        3.2471600
       55.666700        7.7840400        3.1748800
       56.567000        7.6175600        3.1042000
       57.482000        7.4429100        3.0447200
       58.411700        7.2749600        2.9932600
       59.356400        7.1089900        2.9408500
       60.316500        6.9387500        2.8883000
       61.292100        6.7633400        2.8366800
       62.283400        6.5818400        2.7859900
       63.290800        6.3929200        2.7362100
       64.314500        6.1949200        2.6873100
       65.354700        5.9849700        2.6392900
       66.411800        5.7550300        2.5990200
       67.485900        5.5249200        2.5773200
       68.577500        5.2923500        2.5558000
       69.686700        5.0529200        2.5344600
       70.813800        4.8037800        2.5133000
       71.959100        4.5430200        2.4923100
       73.123000        4.2691100        2.4715000
       74.305700        3.9818300        2.4490700
       75.507600        3.6732400        2.4232500
       76.728900        3.3408300        2.3977000
       77.969900        2.9806800        2.3724200
       79.231000        2.5811100        2.3474100
       80.512500        2.1513500        2.3575700
       81.814700        1.7093000        2.3746800
       83.138000        1.2416900        2.3919200
       84.482700       0.74009100        2.4092800
       85.849100       0.19606200        2.4267700
       87.237700      -0.40336800        2.4443900
       88.648700       -1.0704300        2.4860200
       90.082500       -1.7800200        2.5470400
       91.539500       -2.5527600        2.6095500
       93.020100       -3.4081400        2.6736000
       94.524600       -4.3686200        2.7392200
       96.053500       -5.4662200        2.8064500
       97.607100       -6.7634500        2.8753300
       99.185800       -8.3080400        3.0596100
       100.79000       -10.115400        3.3026900
       102.42000       -12.672700        3.7670300
       104.07700       -15.556400        4.9063700
       105.76000       -15.581400        7.9969400
       107.47100       -18.110200        6.2422700
       109.20900       -22.331700        9.0011800
       110.97500       -24.125700        11.542600
       112.77000       -28.629000        11.538800
       114.59400       -37.983200        13.790400
       116.44800       -49.600600        23.782500
       118.33100       -57.918900        43.398300
       120.24500       -53.956600        68.786700
       122.19000       -33.736900        93.115600
       124.16600       -9.0011800        98.093200
       126.17500        12.273600        95.033500
       128.21500        29.412200        87.089500
       130.28900        39.151700        75.296100
       132.39700        43.935200        65.672400
       134.53800        46.957600        58.262500
       136.71400        49.489600        52.045100
       138.92500        52.287600        45.789500
       141.17200        53.254100        38.877000
       143.45600        53.109800        32.599600
       145.77600        51.466900        27.009000
       148.13400        49.364800        23.321000
       150.53000        47.780900        20.387900
       152.96400        46.235600        17.644500
       155.43900        44.523100        15.270400
       157.95300        42.796300        13.554100
       160.50700        41.403400        12.180400
       163.10300        40.223600        10.945900
       165.74200        39.098200        9.6554800
       168.42200        37.916500        8.4930400
       171.14600        36.598200        7.5399400
       173.91500        35.450200        6.8852000
       176.72700        34.472900        6.2873500
       179.58600        33.543000        5.6909100
       182.49100        32.620400        5.1508700
       185.44200        31.713200        4.6821900
       188.44200        30.768200        4.2572100
       191.48900        29.857600        4.0376200
       194.58700        29.065100        3.8668600
       197.73400        28.310500        3.7033400
       200.93200        27.592400        3.6147800
       204.18200        26.898100        3.5360200
       207.48500        26.251200        3.5471100
       210.84000        25.634900        3.5590000
       214.25100        25.045700        3.6516100
       217.71600        24.527400        3.7756300
       221.23700        24.064700        3.9038600
       224.81600        23.634000        4.0364400
       228.45200        23.213000        4.1735300
       232.14700        22.817700        4.3578700
       235.90200        22.464200        4.5572000
       239.71700        22.140900        4.7656600
       243.59500        21.826100        4.9919000
       247.53500        21.553100        5.2559800
       251.53800        21.324400        5.5340500
       255.60700        21.138500        5.8268100
       259.74100        20.994200        6.1223700
       263.94200        20.892100        6.4304000
       268.21100        20.878300        6.7434800
       272.54900        20.889400        6.9893300
       276.95700        20.966300        7.2441500
       281.43700        21.042300        7.3666000
       285.98900        21.077900        7.4864000
       290.61500        21.109200        7.6081500
       295.31500        21.156600        7.6919600
       300.09200        21.126500        7.7652200
       304.94500        21.108200        7.9029900
       309.87800        21.111600        8.0432000
       314.89000        21.128400        8.1859100
       319.98300        21.158400        8.3311400
       325.15800        21.203000        8.4789400
       330.41800        21.265500        8.6293800
       335.76200        21.383000        8.7677100
       341.19200        21.487100        8.8515300
       346.71100        21.572800        8.9361600
       352.31900        21.660100        9.0216000
       358.01700        21.755100        9.1078500
       363.80800        21.874300        9.1949200
       369.69200        22.001100        9.2271700
       375.67200        22.105000        9.2445300
       381.74800        22.189900        9.2619200
       387.92200        22.267200        9.2793400
       394.19700        22.338600        9.2967900
       400.57300        22.405600        9.3142800
       407.05200        22.469100        9.3317900
       413.63500        22.529600        9.3493400
       420.32600        22.587700        9.3678800
       427.12400        22.645100        9.3870200
       434.03200        22.702300        9.4061800
       441.05200        22.760200        9.4253900
       448.18600        22.820100        9.4446400
       455.43500        22.883600        9.4639300
       462.80200        22.980700        9.4722000
       470.28700        23.056200        9.4355800
       477.89400        23.103800        9.3990900
       485.62300        23.139500        9.3627500
       493.47800        23.165000        9.3265400
       501.45900        23.181500        9.2904800
       509.57000        23.189800        9.2545500
       517.81200        23.190400        9.2187700
       526.18700        23.183800        9.1831200
       534.69800        23.170500        9.1476200
       543.34600        23.161500        9.1116300
       552.13400        23.138200        9.0522200
       561.06500        23.093800        8.9931800
       570.13900        23.034100        8.9345300
       579.36100        22.959900        8.8762600
       588.73200        22.871100        8.8183800
       598.25400        22.767500        8.7608700
       607.93000        22.648400        8.7037300
       617.76300        22.513400        8.6469700
       627.75500        22.361900        8.5905800
       637.90800        22.193800        8.5345600
       648.22600        22.009700        8.4789000
       658.71100        21.813900        8.4236100
       669.36500        21.639100        8.3566400
       680.19100        21.398000        8.1946800
       691.19300        21.079300        8.0358500
       702.37200        20.693400        7.8801000
       713.73300        20.241500        7.7273800
       725.27700        19.720900        7.5776100
       737.00800        19.118700        7.4236900
       748.92800        18.417100        7.2702600
       761.04200        17.599800        7.1199900
       773.35100        16.643000        6.9728200
       785.85900        15.511600        6.8287100
       798.57000        14.154100        6.6875600
       811.48600        12.491100        6.5493400
       824.61100        10.391600        6.4139700
       837.94900        7.6176200        6.2814000
       851.50200        3.6655300        6.1515700
       865.27400       -2.8670500        6.0244200
       879.26900       -20.288000        5.8999100
       883.70000       -69.407000        5.8614300
       883.90000       -69.376700        46.643900
       893.49100       -9.2642600        46.080400
       907.94300        3.3158600        45.255300
       922.62800        10.053400        44.444900
       937.55100        14.744600        43.649000
       952.71500        18.366100        42.867400
       968.12400        21.322500        42.099800
       983.78300        23.821700        41.345900
       999.69500        25.985900        40.605500
       1015.8600        27.895600        39.878400
       1032.2900        29.638400        39.146700
       1048.9900        31.083600        38.372300
       1065.9600        32.395700        37.737900
       1083.2000        33.650500        37.114000
       1100.7200        34.815200        36.500500
       1118.5200        35.901300        35.897000
       1136.6100        36.917700        35.303600
       1155.0000        37.872600        34.719900
       1173.6800        38.773300        34.145900
       1192.6600        39.626400        33.581400
       1211.9500        40.438800        33.026200
       1231.5500        41.217500        32.480200
       1251.4700        41.971100        31.943300
       1271.7200        42.711600        31.415200
       1292.2900        43.397300        30.895800
       1313.1900        44.714500        30.385000
       1334.4300        44.943100        28.565100
       1356.0100        44.851800        28.239000
       1377.9400        45.103700        27.916400
       1400.2300        45.450200        27.597500
       1422.8800        45.846600        27.282400
       1445.8900        46.290300        26.970900
       1469.2800        46.771500        26.640100
       1493.0400        47.324200        26.278700
       1517.1900        47.847500        25.779600
       1541.7300        48.280900        25.270400
       1566.6700        48.671600        24.771400
       1592.0100        49.031800        24.281800
       1617.7600        49.367300        23.802000
       1643.9200        49.682700        23.332100
       1670.5100        49.980800        22.871000
       1697.5300        50.264500        22.419100
       1724.9900        50.540600        21.976100
       1752.8900        50.803600        21.524800
       1781.2400        51.047900        21.076900
       1810.0500        51.271500        20.634000
       1839.3200        51.478500        20.200300
       1869.0700        51.671300        19.775900
       1899.3000        51.851800        19.360500
       1930.0200        52.021000        18.953600
       1961.2400        52.180300        18.555200
       1992.9600        52.327000        18.165100
       2025.2000        52.473100        17.791700
       2057.9500        52.613900        17.409100
       2091.2400        52.741800        17.033100
       2125.0600        52.859400        16.663700
       2159.4300        52.967800        16.300400
       2194.3600        53.067700        15.943900
       2229.8500        53.159500        15.593700
       2265.9200        53.243500        15.250000
       2302.5700        53.320500        14.913000
       2339.8100        53.389900        14.581300
       2377.6600        53.452700        14.256900
       2416.1100        53.509400        13.938400
       2455.1900        53.560000        13.625900
       2494.9000        53.604200        13.319200
       2535.2600        53.642900        13.019100
       2576.2600        53.676400        12.724500
       2617.9300        53.704500        12.435700
       2660.2700        53.727500        12.152400
       2703.3000        53.745200        11.874600
       2747.0300        53.758300        11.603000
       2791.4600        53.767100        11.336500
       2836.6100        53.770900        11.075100
       2882.4900        53.770300        10.819600
       2929.1100        53.765800        10.568900
       2976.4800        53.757000        10.323300
       3024.6300        53.744000        10.082900
       3073.5500        53.726900        9.8473200
       3123.2600        53.706000        9.6166600
       3173.7800        53.681100        9.3907700
       3225.1100        53.652300        9.1696500
       3277.2700        53.619700        8.9531700
       3330.2800        53.583300        8.7410700
       3384.1500        53.543000        8.5334300
       3438.8800        53.498700        8.3301800
       3494.5000        53.450600        8.1312400
       3551.0200        53.398500        7.9364700
       3608.4600        53.342200        7.7457600
       3666.8200        53.281800        7.5591600
       3726.1300        53.217000        7.3764600
       3786.4000        53.147600        7.1977100
       3847.6400        53.073700        7.0227200
       3909.8700        52.994700        6.8513700
       3973.1100        52.910400        6.6837700
       4037.3800        52.820700        6.5197400
       4102.6800        52.725000        6.3591400
       4169.0300        52.622700        6.2019900
       4236.4600        52.513400        6.0483000
       4304.9800        52.396600        5.8978200
       4374.6200        52.271300        5.7504500
       4445.3700        52.136400        5.6063400
       4517.2700        51.991100        5.4653000
       4590.3300        51.833800        5.3273000
       4664.5800        51.662800        5.1922400
       4740.0300        51.476100        5.0601100
       4816.6900        51.270800        4.9307500
       4894.6000        51.043400        4.8042500
       4973.7700        50.789400        4.6804300
       5054.2100        50.502200        4.5591700
       5135.9600        50.173100        4.4406200
       5219.0300        49.789000        4.3245700
       5303.4400        49.329300        4.2109000
       5389.2200        48.759000        4.0998100
       5476.3900        48.011100        3.9910100
       5564.9700        46.926000        3.8846200
       5654.9800        44.934300        3.7804700
       5723.3000        29.543000        3.7043500
       5723.5000        29.544900        11.153800
       5746.4400        42.385100        11.071400
       5839.3900        46.101500        10.747200
       5933.8300        47.217700        10.432700
       6029.8100        47.542200        10.127400
       6127.3300        46.721900        9.8309500
       6164.1000        40.041600        9.7226700
       6164.3000        40.043000        13.392500
       6226.4400        47.872800        13.166900
       6327.1500        49.336000        12.814000
       6429.4800        50.030000        12.470200
       6533.4800        49.764000        12.136000
       6548.7000        47.395300        12.088200
       6548.9000        47.398000        13.636200
       6639.1500        51.234500        13.377300
       6746.5400        52.135300        13.080100
       6855.6500        52.802100        12.786800
       6966.5400        53.351400        12.497000
       7079.2200        53.822800        12.211300
       7193.7200        54.236400        11.929700
       7310.0700        54.604300        11.652400
       7428.3100        54.934600        11.379300
       7548.4500        55.232800        11.110600
       7670.5400        55.503600        10.846200
       7794.6100        55.750200        10.586300
       7920.6800        55.975500        10.330900
       8048.7900        56.181600        10.080100
       8178.9800        56.370600        9.8338200
       8311.2600        56.544000        9.5920800
       8445.6900        56.703200        9.3549300
       8582.2900        56.849300        9.1224400
       8721.1100        56.983600        8.8943700
       8862.1600        57.106800        8.6709200
       9005.5000        57.219900        8.4521200
       9151.1600        57.323600        8.2376000
       9299.1700        57.418500        8.0277600
       9449.5800        57.505300        7.8222300
       9602.4200        57.584700        7.6212500
       9757.7300        57.656900        7.4243600
       9915.5500        57.722500        7.2319400
       10075.900        57.782000        7.0437800
       10238.900        57.835700        6.8598500
       10404.500        57.884000        6.6800700
       10572.800        57.927300        6.5044000
       10743.800        57.965900        6.3327800
       10917.600        58.000100        6.1651500
       11094.200        58.030100        6.0014600
       11273.600        58.056200        5.8416300
       11455.900        58.078700        5.6856200
       11641.200        58.097700        5.5333500
       11829.500        58.113600        5.3847600
       12020.800        58.126500        5.2398000
       12215.300        58.136500        5.0983800
       12412.800        58.143900        4.9604500
       12613.600        58.148800        4.8259400
       12817.600        58.151400        4.6948000
       13025.000        58.151800        4.5669400
       13235.600        58.150100        4.4423200
       13449.700        58.146600        4.3208600
       13667.200        58.141300        4.2024900
       13888.300        58.134300        4.0871700
       14112.900        58.125800        3.9748100
       14341.200        58.115700        3.8653600
       14573.100        58.104400        3.7587600
       14808.900        58.091700        3.6549400
       15048.400        58.077900        3.5538400
       15291.800        58.062900        3.4554100
       15539.100        58.046900        3.3595800
       15790.400        58.030000        3.2662900
       16045.800        58.012100        3.1754900
       16305.400        57.993500        3.0871100
       16569.100        57.974000        3.0011100
       16837.100        57.953800        2.9174200
       17109.400        57.932900        2.8359900
       17386.100        57.911400        2.7567600
       17667.400        57.889300        2.6796900
       17953.100        57.866700        2.6047200
       18243.500        57.843500        2.5318000
       18538.600        57.819900        2.4608800
       18838.400        57.795800        2.3919100
       19143.100        57.771300        2.3248400
       19452.700        57.746400        2.2596300
       19767.400        57.721100        2.1962200
       20087.100        57.695500        2.1345700
       20412.000        57.669500        2.0746400
       20742.100        57.643200        2.0163900
       21077.600        57.616500        1.9597600
       21418.500        57.589600        1.9047200
       21765.000        57.562300        1.8512200
       22117.000        57.534700        1.7992300
       22474.700        57.506800        1.7487100
       22838.200        57.478500        1.6996200
       23207.600        57.449900        1.6519100
       23583.000        57.421000        1.6055600
       23964.400        57.391700        1.5605300
       24352.000        57.362100        1.5167800
       24745.900        57.332000        1.4742800
       25146.200        57.301400        1.4329900
       25552.900        57.270400        1.3928900
       25966.200        57.238800        1.3539300
       26386.100        57.206700        1.3160900
       26812.900        57.173900        1.2793400
       27246.600        57.140400        1.2436500
       27687.300        57.106100        1.2089900
       28135.100        57.071000        1.1753300
       28590.200        57.034900        1.1426400
       29052.600        56.997800        1.1109000
       29522.500        56.962400        1.0800800
       30000.000        56.909800        1.0501500
       30400.000        56.833200       0.99476100
       30800.000        56.798500       0.97151700
       31200.000        56.762900       0.94910500
       31500.000        56.735500       0.93281800
       31900.000        56.697800       0.91176900
       32300.000        56.658900       0.89144800
       32600.000        56.628600       0.87666400
       33000.000        56.586800       0.85753800
       33400.000        56.543100       0.83899300
       33800.000        56.497200       0.82106300
       34100.000        56.461100       0.80800200
       34300.000        56.436100       0.79954300
       34500.000        56.410400       0.79108300
       34700.000        56.383900       0.78289400
       34900.000        56.356500       0.77470600
       35100.000        56.328100       0.76675700
       35300.000        56.298700       0.75880800
       35500.000        56.268100       0.75110200
       35700.000        56.236300       0.74339500
       35900.000        56.203100       0.73590800
       36030.000        56.180800       0.73104200
       36160.000        56.157700       0.72632500
       36300.000        56.132100       0.72124600
       36500.000        56.094000       0.71398900
       36800.000        56.032900       0.70350500
       36900.000        56.011300       0.70001000
       37000.000        55.989200       0.69651500
       37150.000        55.954700       0.69146900
       37300.000        55.918500       0.68642200
       37400.000        55.893300       0.68305800
       37500.000        55.867300       0.67969400
       37650.000        55.826500       0.67483400
       37800.000        55.783300       0.66997500
       37900.000        55.753100       0.66673500
       38000.000        55.721600       0.66349500
       38150.000        55.671700       0.65881200
       38300.000        55.618200       0.65413000
       38400.000        55.580300       0.65100800
       38500.000        55.540500       0.64788600
       38570.000        55.511300       0.64577900
       38650.000        55.476400       0.64337200
       38720.000        55.444500       0.64126500
       38800.000        55.406500       0.63885700
       38900.000        55.356000       0.63584800
       38950.000        55.329500       0.63434300
       39000.000        55.302000       0.63283800
       39070.000        55.261800       0.63080600
       39150.000        55.213100       0.62848400
       39220.000        55.167900       0.62645200
       39300.000        55.112800       0.62413000
       39350.000        55.076300       0.62267900
       39400.000        55.038000       0.62122800
       39450.000        54.997700       0.61977600
       39500.000        54.955300       0.61832500
       39530.000        54.928700       0.61748500
       39570.000        54.891800       0.61636400
       39610.000        54.853200       0.61524400
       39650.000        54.812500       0.61412400
       39680.000        54.780700       0.61328400
       39720.000        54.736100       0.61216300
       39760.000        54.688900       0.61104300
       39800.000        54.638800       0.60992300
       39820.000        54.612600       0.60936200
       39850.000        54.571600       0.60852200
       39870.000        54.543000       0.60796200
       39900.000        54.498300       0.60712200
       39920.000        54.467000       0.60656200
       39950.000        54.417800       0.60572100
       39980.000        54.365500       0.60488100
       40000.000        54.328700       0.60432100
       40010.000        54.309700       0.60404600
       40020.000        54.290200       0.60377000
       40050.000        54.228900       0.60294400
       40070.000        54.185400       0.60239400
       40100.000        54.115600       0.60156800
       40120.000        54.065600       0.60101700
       40150.000        53.984600       0.60019100
       40170.000        53.926000       0.59964000
       40185.000        53.879100       0.59922700
       40200.000        53.829700       0.59881400
       40215.000        53.777100       0.59840800
       40230.000        53.721100       0.59800100
       40245.000        53.661200       0.59759500
       40260.000        53.596900       0.59718800
       40275.000        53.527300       0.59678200
       40283.000        53.487800       0.59656500
       40290.000        53.451700       0.59637500
       40300.000        53.397400       0.59610400
       40310.000        53.339400       0.59583300
       40320.000        53.277300       0.59556200
       40330.000        53.210500       0.59529100
       40337.000        53.160400       0.59510200
       40345.000        53.099500       0.59488500
       40353.000        53.034000       0.59466800
       40360.000        52.972400       0.59447800
       40368.000        52.896300       0.59426200
       40375.000        52.823800       0.59407200
       40383.000        52.733000       0.59385500
       40390.000        52.645100       0.59366500
       40394.000        52.590700       0.59355700
       40398.000        52.532600       0.59344900
       40402.000        52.470600       0.59334000
       40405.000        52.420900       0.59325900
       40409.000        52.350200       0.59315100
       40413.000        52.273300       0.59304200
       40417.000        52.189100       0.59293400
       40420.000        52.120400       0.59285200
       40423.000        52.045800       0.59277100
       40425.000        51.992400       0.59271700
       40428.000        51.905700       0.59263600
       40430.000        51.843000       0.59258100
       40433.000        51.739500       0.59250000
       40435.000        51.663300       0.59244600
       40438.000        51.535100       0.59236500
       40440.000        51.438300       0.59231000
       40442.000        51.329500       0.59225600
       40443.000        51.269700       0.59222900
       40444.000        51.205800       0.59220200
       40445.500        51.100300       0.59216100
       40447.000        50.980400       0.59212100
       40448.000        50.891100       0.59209400
       40449.000        50.791200       0.59206700
       40449.800        50.702900       0.59204500
       40450.500        50.617500       0.59202600
       40451.300        50.509400       0.59200400
       40452.000        50.402100       0.59198500
       40453.000        50.224300       0.59195800
       40454.000        50.002900       0.59193100
       40454.500        49.869400       0.59191800
       40455.000        49.713500       0.59190400
       40455.500        49.527500       0.59189000
       40456.000        49.297600       0.59187700
       40456.600        48.931200       0.59186100
       40457.100        48.490600       0.59184700
       40457.600        47.791900       0.59183400
       40458.100        46.391400       0.59182000
       40458.100        46.381100       0.59182000
       40458.200        46.714100        1.8477700
       40458.300        47.063900        3.1037200
       40458.500        47.755100        5.6156100
       40458.900        49.095600        10.639400
       40459.300        50.364700        5.6155900
       40459.700        51.466400       0.59177600
       40459.900        50.660300       0.59177200
       40460.100        49.953000       0.59176700
       40460.500        50.040200       0.59175600
       40460.900        50.312400        6.3697600
       40461.300        50.577900       0.72913500
       40461.700        50.804900        1.0789800
       40462.200        49.710200        1.8671700
       40462.800        49.565700        3.4902300
       40463.400        49.952300        3.4838600
       40464.000        50.375600        3.4740600
       40464.500        50.502900        3.4659700
       40465.000        50.602800        3.4578700
       40465.500        50.686400        3.4504500
       40466.000        50.759800        3.4430300
       40466.800        50.858400        3.4322000
       40467.500        50.932900        3.4227300
       40468.300        51.008800        3.4137300
       40469.000        51.067800        3.4058600
       40469.500        51.106000        3.4022100
       40470.000        51.142500        3.3985500
       40470.500        51.176900        3.3948700
       40471.000        51.209800        3.3911900
       40471.800        51.258200        3.3888200
       40472.500        51.299100        3.3867500
       40473.300        51.342600        3.3843800
       40474.000        51.378300        3.3823000
       40475.000        51.425600        3.3827500
       40476.000        51.471000        3.3832000
       40477.000        51.513600        3.3855200
       40478.000        51.554800        3.3878500
       40480.000        51.632500        3.3948000
       40483.000        51.741100        3.4071800
       40485.000        51.809300        3.4154300
       40488.000        51.906500        3.4260600
       40490.000        51.968200        3.4314300
       40493.000        52.055300        3.4366600
       40495.000        52.110400        3.4382800
       40498.000        52.187100        3.4383900
       40500.000        52.235000        3.4372100
       40502.000        52.280000        3.4350900
       40504.000        52.322200        3.4329800
       40508.000        52.399900        3.4281600
       40512.000        52.469800        3.4238700
       40515.000        52.517500        3.4206600
       40519.000        52.576800        3.4191800
       40523.000        52.632000        3.4176900
       40527.000        52.684000        3.4185400
       40530.000        52.721600        3.4191700
       40535.000        52.781900        3.4209500
       40540.000        52.839700        3.4227300
       40545.000        52.894800        3.4232200
       40550.000        52.947300        3.4237000
       40555.000        52.997000        3.4226300
       40560.000        53.043800        3.4215600
       40565.000        53.087900        3.4200600
       40570.000        53.129200        3.4185500
       40578.000        53.191600        3.4182000
       40585.000        53.243500        3.4178900
       40593.000        53.299600        3.4175300
       40600.000        53.346400        3.4172200
       40608.000        53.397200        3.4164500
       40615.000        53.439500        3.4157700
       40622.000        53.479900        3.4151000
       40630.000        53.524000        3.4143300
       40640.000        53.576500        3.4133600
       40650.000        53.626100        3.4124000
       40660.000        53.673400        3.4114400
       40670.000        53.718500        3.4104700
       40685.000        53.782500        3.4090300
       40700.000        53.842900        3.4075800
       40715.000        53.899800        3.4051900
       40730.000        53.953000        3.4027900
       40740.000        53.986900        3.4012000
       40750.000        54.019400        3.3996000
       40770.000        54.081200        3.3966700
       40800.000        54.166400        3.3922800
       40820.000        54.219000        3.3903900
       40840.000        54.269400        3.3885000
       40860.000        54.317400        3.3866200
       40880.000        54.363200        3.3847300
       40910.000        54.428400        3.3819500
       40950.000        54.510000        3.3782500
       40990.000        54.585700        3.3729000
       41030.000        54.655400        3.3675400
       41070.000        54.720400        3.3621900
       41100.000        54.766600        3.3581700
       41140.000        54.824900        3.3524200
       41180.000        54.879500        3.3466700
       41220.000        54.931000        3.3409200
       41250.000        54.967400        3.3366100
       41290.000        55.014000        3.3320400
       41330.000        55.058800        3.3274700
       41360.000        55.091100        3.3240400
       41400.000        55.132600        3.3194700
       41480.000        55.211200        3.3115300
       41550.000        55.276200        3.3045800
       41630.000        55.346300        3.2958200
       41700.000        55.404200        3.2881500
       41750.000        55.443900        3.2820800
       41800.000        55.481900        3.2760100
       41850.000        55.518600        3.2699400
       41900.000        55.554200        3.2638700
       41950.000        55.588700        3.2572500
       42000.000        55.621800        3.2506400
       42100.000        55.685000        3.2374100
       42180.000        55.732700        3.2261700
       42250.000        55.772200        3.2163400
       42330.000        55.815100        3.2051000
       42400.000        55.850600        3.1952700
       42480.000        55.889500        3.1851000
       42550.000        55.922400        3.1762100
       42630.000        55.958600        3.1660400
       42700.000        55.988800        3.1571400
       42770.000        56.018000        3.1491700
       42850.000        56.050700        3.1400600
       42920.000        56.078600        3.1320800
       43000.000        56.109400        3.1229700
       43100.000        56.146700        3.1121900
       43200.000        56.182500        3.1014100
       43300.000        56.216600        3.0906400
       43400.000        56.249700        3.0798600
       43500.000        56.283000        3.0692700
       43600.000        56.315500        3.0586800
       43700.000        56.346500        3.0481000
       43800.000        56.376400        3.0375100
       43950.000        56.419500        3.0216300
       44100.000        56.460700        3.0057500
       44300.000        56.513200        2.9845700
       44500.000        56.563500        2.9634000
       44600.000        56.587800        2.9525100
       44700.000        56.611200        2.9416100
       44800.000        56.633900        2.9307200
       44900.000        56.655900        2.9198300
       45100.000        56.698400        2.8980400
       45300.000        56.738500        2.8762600
       45450.000        56.767300        2.8605200
       45600.000        56.795000        2.8447800
       45800.000        56.830500        2.8237900
       46000.000        56.864300        2.8028000
       46150.000        56.888600        2.7875900
       46300.000        56.912100        2.7723700
       46400.000        56.927300        2.7622300
       46500.000        56.942000        2.7520900
       46800.000        56.984800        2.7232400
       47000.000        57.012000        2.7040100
       47300.000        57.051000        2.6759600
       47500.000        57.075700        2.6572600
       47800.000        57.111200        2.6299800
       48000.000        57.133700        2.6118000
       48300.000        57.166100        2.5857300
       48500.000        57.186800        2.5683500
       48800.000        57.216900        2.5429800
       49000.000        57.236100        2.5260600
       49300.000        57.263900        2.5012600
       49500.000        57.281700        2.4847300
       49800.000        57.307500        2.4605700
       49900.000        57.315800        2.4525200
       50000.000        57.324000        2.4444700
       50300.000        57.347800        2.4212600
       50500.000        57.363200        2.4057800
       50800.000        57.385400        2.3825700
       51000.000        57.399700        2.3671000
       51300.000        57.420500        2.3450500
       51500.000        57.433800        2.3303500
       51800.000        57.453200        2.3083100
       52000.000        57.465800        2.2936100
       52300.000        57.484000        2.2726500
       52500.000        57.495700        2.2586800
       52800.000        57.512900        2.2377100
       53000.000        57.524200        2.2237400
       53300.000        57.540400        2.2033900
       53500.000        57.550800        2.1898300
       53800.000        57.565900        2.1694800
       54000.000        57.575600        2.1559200
       54300.000        57.589800        2.1365500
       54500.000        57.598900        2.1236400
       54800.000        57.612300        2.1042700
       55000.000        57.621000        2.0913600
       55300.000        57.633700        2.0725800
       55500.000        57.641800        2.0600600
       55800.000        57.653500        2.0412700
       56000.000        57.661000        2.0287500
       56200.000        57.668400        2.0167600
       56400.000        57.675600        2.0047600
       56800.000        57.689400        1.9807800
       57200.000        57.702600        1.9576500
       57530.000        57.712900        1.9385600
       57800.000        57.721200        1.9233800
       58000.000        57.727100        1.9121300
       58500.000        57.741300        1.8845700
       59000.000        57.754700        1.8579600
       59540.000        57.768400        1.8292200
       59800.000        57.774700        1.8157900
       59900.000        57.777200        1.8106800
       60000.000        57.779600        1.8055600
       60400.000        57.788900        1.7851600
       60800.000        57.797600        1.7647600
       61100.000        57.803800        1.7499700
       61500.000        57.811700        1.7302500
       61900.000        57.819200        1.7111400
       62300.000        57.826400        1.6920300
       62600.000        57.831500        1.6781200
       63000.000        57.838000        1.6595800
       63500.000        57.845700        1.6372300
       64000.000        57.852900        1.6148900
       64500.000        57.859700        1.5934800
       65000.000        57.865900        1.5720800
       65500.000        57.871800        1.5517000
       65900.000        57.876300        1.5354000
       66830.000        57.886000        1.4989000
       67400.000        57.891500        1.4772100
       68000.000        57.896800        1.4549000
       69000.000        57.905000        1.4188900
       70000.000        57.912400        1.3842700
       71000.000        57.918900        1.3506200
       72000.000        57.924600        1.3182300
       73500.000        57.931600        1.2719100
       74960.000        57.937400        1.2292300
       75500.000        57.939400        1.2137700
       76000.000        57.940800        1.1997100
       77110.000        57.943600        1.1694000
       78600.000        57.946400        1.1305600
       79300.000        57.947400        1.1130000
       80000.000        57.948100        1.0958700
       81500.000        57.949200        1.0604700
       83000.000        57.949600        1.0268400
       84000.000        57.949600        1.0053300
       85000.000        57.949300       0.98452100
       86500.000        57.948300       0.95449200
       88000.000        57.947200       0.92587200
       89000.000        57.946200       0.90753100
       90000.000        57.945200       0.88975200
       91500.000        57.943100       0.86383900
       93000.000        57.941000       0.83908500
       94000.000        57.939300       0.82319000
       95000.000        57.937600       0.80776000
       96500.000        57.934800       0.78530300
       98000.000        57.931900       0.76380300
       99000.000        57.929800       0.74997400
       99500.000        57.928800       0.74320400
       100000.00        57.927700       0.73653000
