;  Atomic scattering factors for Dy.
;   
;  Concatenation of data from CXRO <http://www-cxro.lbl.gov>
;  and LLNL <http://www-phys.llnl.gov/V_Div/scattering/asf.html>
;  
;  E (eV) f1 f2
;---------------
       10.000000       -9999.0000       0.15634500
       10.161700       -9999.0000       0.16209900
       10.326100       -9999.0000       0.16806500
       10.493100       -9999.0000       0.17425000
       10.662800       -9999.0000       0.18066300
       10.835300       -9999.0000       0.18731200
       11.010600       -9999.0000       0.19420600
       11.188600       -9999.0000       0.20135300
       11.369600       -9999.0000       0.20876300
       11.553500       -9999.0000       0.21654100
       11.740400       -9999.0000       0.22505200
       11.930300       -9999.0000       0.23389700
       12.123200       -9999.0000       0.24309000
       12.319300       -9999.0000       0.25264400
       12.518600       -9999.0000       0.26257400
       12.721000       -9999.0000       0.27283000
       12.926800       -9999.0000       0.28290800
       13.135900       -9999.0000       0.29335800
       13.348300       -9999.0000       0.30419400
       13.564200       -9999.0000       0.31543100
       13.783600       -9999.0000       0.32708200
       14.006600       -9999.0000       0.33874600
       14.233100       -9999.0000       0.35059800
       14.463300       -9999.0000       0.36286400
       14.697300       -9999.0000       0.37556000
       14.935000       -9999.0000       0.38870000
       15.176500       -9999.0000       0.40230000
       15.422000       -9999.0000       0.41549800
       15.671400       -9999.0000       0.42574700
       15.924900       -9999.0000       0.43624900
       16.182500       -9999.0000       0.44701000
       16.444200       -9999.0000       0.45803600
       16.710200       -9999.0000       0.46933400
       16.980500       -9999.0000       0.48091100
       17.255100       -9999.0000       0.49764900
       17.534200       -9999.0000       0.51536000
       17.817800       -9999.0000       0.53370300
       18.106000       -9999.0000       0.54937400
       18.398900       -9999.0000       0.56474600
       18.696400       -9999.0000       0.58054800
       18.998800       -9999.0000       0.59679200
       19.306100       -9999.0000       0.61349100
       19.618400       -9999.0000       0.63065700
       19.935700       -9999.0000       0.65160100
       20.258200       -9999.0000       0.67463900
       20.585800       -9999.0000       0.69849100
       20.918800       -9999.0000       0.72865500
       21.257100       -9999.0000       0.77616600
       21.600900       -9999.0000       0.82677600
       21.950300       -9999.0000       0.88068500
       22.305300       -9999.0000       0.93810900
       22.666100       -9999.0000        1.0221200
       23.032700       -9999.0000        1.1437800
       23.405300       -9999.0000        1.2799300
       23.783800       -9999.0000        1.4322800
       24.168500       -9999.0000        1.6027600
       24.559400       -9999.0000        1.7935400
       24.956600       -9999.0000        2.0070300
       25.360300       -9999.0000        2.2564600
       25.770500       -9999.0000        2.6887100
       26.187300       -9999.0000        3.2037700
       26.610900       -9999.0000        3.8174900
       27.041300       -9999.0000        4.5487800
       27.478600       -9999.0000        5.4201600
       27.923100       -9999.0000        6.3657500
       28.374700       -9999.0000        7.4399600
       28.833700       -9999.0000        8.6954400
       29.300000       -6.5767200        10.162800
       29.773900       -5.8727000        11.625200
       30.255500       -5.1361000        12.508900
       30.744900       -4.3998400        13.459700
       31.242100       -3.3983800        14.220000
       31.747500       -2.5485600        14.795500
       32.260900       -1.6754000        15.285900
       32.782700      -0.82596900        15.730600
       33.313000       0.12398600        16.051200
       33.851800       0.95117600        16.264900
       34.399300        1.7517800        16.479200
       34.955700        2.5656300        16.666400
       35.521100        3.4363100        16.855700
       36.095600        4.5073000        16.929500
       36.679400        5.4365700        16.623400
       37.272700        6.2059500        16.322800
       37.875500        6.9283300        15.980600
       38.488200        7.5211300        15.578300
       39.110700        8.0213200        15.186100
       39.743200        8.4580200        14.803800
       40.386100        8.8422400        14.431000
       41.039300        9.1813900        14.067700
       41.703100        9.4807300        13.713600
       42.377600        9.7440800        13.368300
       43.063000        9.9741700        13.031700
       43.759500        10.172900        12.703600
       44.467300        10.341100        12.383800
       45.186500        10.478300        12.072000
       45.917400        10.581600        11.768100
       46.660000        10.633800        11.471800
       47.414700        10.623700        11.259200
       48.181600        10.662300        11.095300
       48.960900        10.719800        10.933800
       49.752800        10.778100        10.774600
       50.557600        10.833400        10.617800
       51.375300        10.883300        10.463200
       52.206200        10.925600        10.310900
       53.050600        10.958700        10.160800
       53.908700        10.980400        10.012900
       54.780600        10.987800        9.8671100
       55.666700        10.976300        9.7234600
       56.567000        10.927900        9.5819200
       57.482000        10.814800        9.5126400
       58.411700        10.763900        9.5020700
       59.356400        10.745700        9.4915200
       60.316500        10.738800        9.4809700
       61.292100        10.738900        9.4704300
       62.283400        10.742800        9.4599200
       63.290800        10.747800        9.4494000
       64.314500        10.749700        9.4389000
       65.354700        10.738300        9.4342100
       66.411800        10.735800        9.4533300
       67.485900        10.743600        9.4724800
       68.577500        10.754900        9.4916800
       69.686700        10.766900        9.5109200
       70.813800        10.775300        9.5302000
       71.959100        10.768600        9.5541900
       73.123000        10.771500        9.6098600
       74.305700        10.789400        9.6658600
       75.507600        10.814900        9.7221900
       76.728900        10.846100        9.7788400
       77.969900        10.882700        9.8357900
       79.231000        10.922300        9.8897500
       80.512500        10.963400        9.9440100
       81.814700        11.006200        9.9985600
       83.138000        11.050600        10.053400
       84.482700        11.096700        10.108500
       85.849100        11.144000        10.163600
       87.237700        11.192300        10.218900
       88.648700        11.241800        10.274500
       90.082500        11.292600        10.330500
       91.539500        11.345500        10.386200
       93.020100        11.398400        10.439400
       94.524600        11.450800        10.492900
       96.053500        11.503100        10.546700
       97.607100        11.555300        10.600700
       99.185800        11.603600        10.655100
       100.79000        11.660100        10.727300
       102.42000        11.745300        10.801200
       104.07700        11.840300        10.831300
       105.76000        11.918800        10.852000
       107.47100        11.995800        10.872700
       109.20900        12.091800        10.893400
       110.97500        12.227700        10.847200
       112.77000        12.287500        10.736000
       114.59400        12.299800        10.626000
       116.44800        12.281400        10.517200
       118.33100        12.252200        10.396300
       120.24500        12.165200        10.234100
       122.19000        12.020200        10.074400
       124.16600        11.821100        9.9172200
       126.17500        11.566500        9.7624800
       128.21500        11.251700        9.6101500
       130.28900        10.869700        9.4602100
       132.39700        10.415600        9.3126100
       134.53800        9.9100100        9.1302400
       136.71400        9.2124100        8.8657400
       138.92500        8.3545800        8.5859500
       141.17200        7.2763400        7.9298200
       143.45600        5.1556300        7.1956900
       145.77600        2.0834000        6.6320300
       148.13400       -3.4160100        6.3669900
       150.53000       -24.033000        10.610900
       152.96400       -8.9908100        43.010300
       155.43900        5.6699700        42.356100
       157.95300        14.260400        38.616600
       160.50700        19.223100        34.193000
       163.10300        22.049500        30.028000
       165.74200        21.858800        25.101100
       168.42200        20.711600        24.088700
       171.14600        20.606300        23.599300
       173.91500        20.828200        23.119800
       176.72700        21.142700        22.650100
       179.58600        21.476400        22.189900
       182.49100        21.796500        21.739100
       185.44200        22.081800        21.297400
       188.44200        22.293100        20.864700
       191.48900        22.414800        20.549500
       194.58700        22.612400        20.339900
       197.73400        22.845900        20.132400
       200.93200        23.091300        19.927100
       204.18200        23.340600        19.723800
       207.48500        23.590400        19.522600
       210.84000        23.840200        19.323500
       214.25100        24.103100        19.126400
       217.71600        24.358700        18.889100
       221.23700        24.580500        18.644200
       224.81600        24.778000        18.402400
       228.45200        24.954700        18.163800
       232.14700        25.110800        17.928300
       235.90200        25.244900        17.695800
       239.71700        25.354400        17.466400
       243.59500        25.434100        17.239900
       247.53500        25.473200        17.016400
       251.53800        25.368600        16.859700
       255.60700        25.344900        16.851700
       259.74100        25.397600        16.843600
       263.94200        25.471900        16.835500
       268.21100        25.561000        16.827500
       272.54900        25.659900        16.819400
       276.95700        25.765000        16.811300
       281.43700        25.872700        16.803300
       285.98900        25.977400        16.795300
       290.61500        26.062000        16.802000
       295.31500        26.171900        16.843400
       300.09200        26.301000        16.884900
       304.94500        26.442000        16.926500
       309.87800        26.592600        16.968200
       314.89000        26.751600        17.010000
       319.98300        26.918200        17.051900
       325.15800        27.092000        17.093900
       330.41800        27.273000        17.136000
       335.76200        27.461400        17.178200
       341.19200        27.657600        17.220500
       346.71100        27.862500        17.262900
       352.31900        28.077800        17.305400
       358.01700        28.316900        17.348000
       363.80800        28.568400        17.357500
       369.69200        28.804900        17.350800
       375.67200        29.034800        17.344200
       381.74800        29.263200        17.337600
       387.92200        29.492500        17.331000
       394.19700        29.724400        17.324300
       400.57300        29.960700        17.317700
       407.05200        30.203600        17.311100
       413.63500        30.456500        17.304500
       420.32600        30.736000        17.297900
       427.12400        31.052500        17.248500
       434.03200        31.328800        17.141500
       441.05200        31.576300        17.035100
       448.18600        31.808300        16.929400
       455.43500        32.029100        16.824300
       462.80200        32.241100        16.719900
       470.28700        32.445800        16.616200
       477.89400        32.644200        16.513100
       485.62300        32.837300        16.410600
       493.47800        33.025500        16.308700
       501.45900        33.209500        16.207500
       509.57000        33.389800        16.106900
       517.81200        33.566900        16.007000
       526.18700        33.741400        15.907700
       534.69800        33.914700        15.808900
       543.34600        34.085400        15.707800
       552.13400        34.253700        15.607200
       561.06500        34.420700        15.507300
       570.13900        34.588000        15.408000
       579.36100        34.758300        15.309300
       588.73200        34.937900        15.211300
       598.25400        35.142500        15.084900
       607.93000        35.320100        14.921300
       617.76300        35.466500        14.759300
       627.75500        35.599200        14.599200
       637.90800        35.720100        14.440800
       648.22600        35.830700        14.284100
       658.71100        35.932000        14.129100
       669.36500        36.024500        13.975700
       680.19100        36.108700        13.824100
       691.19300        36.184800        13.674100
       702.37200        36.253300        13.525700
       713.73300        36.314200        13.378900
       725.27700        36.367700        13.233800
       737.00800        36.414000        13.090200
       748.92800        36.453500        12.948100
       761.04200        36.486800        12.807600
       773.35100        36.515300        12.668600
       785.85900        36.548800        12.531200
       798.57000        36.561900        12.361900
       811.48600        36.555300        12.204200
       824.61100        36.535500        12.048500
       837.94900        36.503400        11.894700
       851.50200        36.458600        11.740900
       865.27400        36.399900        11.586700
       879.26900        36.324300        11.432400
       893.49100        36.231800        11.280200
       907.94300        36.122600        11.130000
       922.62800        35.997300        10.981600
       937.55100        35.851700        10.829600
       952.71500        35.682900        10.678100
       968.12400        35.487900        10.527300
       983.78300        35.265400        10.378500
       999.69500        35.013500        10.231100
       1015.8600        34.730100        10.085000
       1032.2900        34.406900        9.9335000
       1048.9900        34.037000        9.7821100
       1065.9600        33.611400        9.6307500
       1083.2000        33.122300        9.4818900
       1100.7200        32.558800        9.3353700
       1118.5200        31.905300        9.1911400
       1136.6100        31.140500        9.0490000
       1155.0000        30.233900        8.9090900
       1173.6800        29.140300        8.7713900
       1192.6600        27.789000        8.6357800
       1211.9500        26.060500        8.5023300
       1231.5500        23.728400        8.3710100
       1251.4700        20.281400        8.2424100
       1271.7200        14.079500        8.1158400
       1292.2900       -27.457700        7.9912000
       1292.5000       -39.062900        7.9899200
       1292.7000       -39.040300        39.824700
       1313.1900        15.886600        38.927200
       1334.4300        23.648600        38.032300
       1356.0100        28.284800        37.157900
       1377.9400        31.604900        36.303200
       1400.2300        34.179200        35.468200
       1422.8800        36.263800        34.652700
       1445.8900        37.995300        33.855700
       1469.2800        39.454500        33.077500
       1493.0400        40.691500        32.317900
       1517.1900        41.739700        31.578200
       1541.7300        42.617300        30.855900
       1566.6700        43.327800        30.150100
       1592.0100        43.856100        29.460300
       1617.7600        44.149300        28.786300
       1643.9200        44.028100        28.127700
       1670.5100        41.974900        27.484100
       1675.5000        36.579400        27.366100
       1675.7000        36.597000        31.928400
       1697.5300        44.815500        31.394000
       1724.9900        46.535200        30.743900
       1752.8900        47.639900        30.106900
       1781.2400        48.440300        29.483200
       1810.0500        48.949200        28.872900
       1839.3200        48.201100        28.275200
       1841.7000        46.480400        28.227700
       1841.9000        46.496500        30.074700
       1869.0700        50.408300        29.464700
       1899.3000        51.465800        28.810600
       1930.0200        52.250500        28.171000
       1961.2400        52.878900        27.545600
       1992.9600        53.365800        26.933900
       2025.2000        53.588100        26.342500
       2046.7000        52.484300        25.960400
       2046.9000        52.498900        27.061600
       2057.9500        53.935700        26.873700
       2091.2400        54.891000        26.321500
       2125.0600        55.548300        25.776200
       2159.4300        56.105600        25.239000
       2194.3600        56.602400        24.708900
       2229.8500        57.053200        24.186000
       2265.9200        57.466400        23.671200
       2302.5700        57.847500        23.164200
       2339.8100        58.200700        22.665600
       2377.6600        58.528700        22.174600
       2416.1100        58.833200        21.691800
       2455.1900        59.116800        21.217400
       2494.9000        59.380600        20.750500
       2535.2600        59.625800        20.292100
       2576.2600        59.854400        19.842100
       2617.9300        60.067100        19.399800
       2660.2700        60.264500        18.965500
       2703.3000        60.447700        18.539300
       2747.0300        60.617300        18.121300
       2791.4600        60.774500        17.711500
       2836.6100        60.920300        17.309700
       2882.4900        61.054500        16.915100
       2929.1100        61.178200        16.529100
       2976.4800        61.291900        16.150100
       3024.6300        61.396200        15.779100
       3073.5500        61.491100        15.414700
       3123.2600        61.576800        15.058600
       3173.7800        61.654800        14.710200
       3225.1100        61.725500        14.368700
       3277.2700        61.788200        14.033400
       3330.2800        61.843400        13.706300
       3384.1500        61.892300        13.386100
       3438.8800        61.934700        13.072500
       3494.5000        61.970900        12.765700
       3551.0200        62.001200        12.465600
       3608.4600        62.026000        12.172000
       3666.8200        62.045200        11.884800
       3726.1300        62.059400        11.604000
       3786.4000        62.068500        11.329300
       3847.6400        62.072900        11.060700
       3909.8700        62.072600        10.798100
       3973.1100        62.067800        10.541500
       4037.3800        62.058900        10.290600
       4102.6800        62.045800        10.045400
       4169.0300        62.028500        9.8056000
       4236.4600        62.007200        9.5713800
       4304.9800        61.982200        9.3425800
       4374.6200        61.953500        9.1188400
       4445.3700        61.920800        8.9003000
       4517.2700        61.884500        8.6868900
       4590.3300        61.844700        8.4783900
       4664.5800        61.801300        8.2746400
       4740.0300        61.754100        8.0755700
       4816.6900        61.703300        7.8812100
       4894.6000        61.648800        7.6913700
       4973.7700        61.590500        7.5058800
       5054.2100        61.528300        7.3248300
       5135.9600        61.462200        7.1479900
       5219.0300        61.392000        6.9752300
       5303.4400        61.317400        6.8065100
       5389.2200        61.238200        6.6418700
       5476.3900        61.154300        6.4810900
       5564.9700        61.065200        6.3240000
       5654.9800        60.970600        6.1708000
       5746.4400        60.870100        6.0210700
       5839.3900        60.763100        5.8749400
       5933.8300        60.648900        5.7322800
       6029.8100        60.526800        5.5930300
       6127.3300        60.395900        5.4569500
       6226.4400        60.254800        5.3241500
       6327.1500        60.102300        5.1945400
       6429.4800        59.936700        5.0680700
       6533.4800        59.755500        4.9444300
       6639.1500        59.556000        4.8238900
       6746.5400        59.334300        4.7060400
       6855.6500        59.085200        4.5911500
       6966.5400        58.801600        4.4790100
       7079.2200        58.472900        4.3694300
       7193.7200        58.082800        4.2624900
       7310.0700        57.603800        4.1580700
       7428.3100        56.984900        4.0562700
       7548.4500        56.110100        3.9566800
       7670.5400        54.601400        3.8595200
       7790.0000        39.403400        3.7682000
       7790.2000        39.404200        10.538200
       7794.6100        47.620000        10.527200
       7920.6800        54.889700        10.220500
       8048.7900        56.238600        9.9226500
       8178.9800        56.877700        9.6335900
       8311.2600        57.109000        9.3529700
       8445.6900        56.909300        9.0804100
       8580.5000        49.611700        8.8191700
       8580.7000        49.614000        12.287400
       8582.2900        52.586400        12.283100
       8721.1100        57.608800        11.923500
       8862.1600        58.443300        11.574400
       9005.5000        58.400800        11.235300
       9045.7000        55.436600        11.142900
       9045.9000        55.438800        12.812200
       9151.1600        59.486100        12.591400
       9299.1700        60.437500        12.291600
       9449.5800        61.101100        11.997200
       9602.4200        61.633500        11.708200
       9757.7300        62.082600        11.424600
       9915.5500        62.471700        11.146900
       10075.900        62.814400        10.874200
       10238.900        63.119000        10.607000
       10404.500        63.392000        10.345200
       10572.800        63.638000        10.088700
       10743.800        63.860600        9.8375400
       10917.600        64.062600        9.5916200
       11094.200        64.246500        9.3509100
       11273.600        64.414000        9.1153600
       11455.900        64.566900        8.8849100
       11641.200        64.706500        8.6595000
       11829.500        64.834000        8.4390600
       12020.800        64.950500        8.2235400
       12215.300        65.056900        8.0128500
       12412.800        65.154000        7.8069500
       12613.600        65.242500        7.6057400
       12817.600        65.323200        7.4091800
       13025.000        65.396500        7.2171600
       13235.600        65.463000        7.0296300
       13449.700        65.523300        6.8465100
       13667.200        65.577700        6.6677200
       13888.300        65.626600        6.4931900
       14112.900        65.670500        6.3228300
       14341.200        65.709700        6.1565800
       14573.100        65.744400        5.9943500
       14808.900        65.775100        5.8360800
       15048.400        65.801900        5.6816700
       15291.800        65.825100        5.5310700
       15539.100        65.844900        5.3841800
       15790.400        65.861600        5.2409400
       16045.800        65.875400        5.1012700
       16305.400        65.886500        4.9650900
       16569.100        65.895000        4.8323300
       16837.100        65.901100        4.7029200
       17109.400        65.904900        4.5768000
       17386.100        65.906700        4.4538700
       17667.400        65.906500        4.3340800
       17953.100        65.904400        4.2173500
       18243.500        65.900700        4.1036200
       18538.600        65.895300        3.9928100
       18838.400        65.888500        3.8848700
       19143.100        65.880200        3.7797200
       19452.700        65.870700        3.6773100
       19767.400        65.859900        3.5775500
       20087.100        65.848000        3.4804100
       20412.000        65.835100        3.3858000
       20742.100        65.821200        3.2936800
       21077.600        65.806300        3.2039700
       21418.500        65.790600        3.1166300
       21765.000        65.774000        3.0315900
       22117.000        65.756700        2.9488100
       22474.700        65.738800        2.8682200
       22838.200        65.720100        2.7897700
       23207.600        65.700900        2.7134000
       23583.000        65.681000        2.6390700
       23964.400        65.660700        2.5667200
       24352.000        65.639800        2.4963100
       24745.900        65.618500        2.4277800
       25146.200        65.596700        2.3610900
       25552.900        65.574500        2.2961900
       25966.200        65.551900        2.2330400
       26386.100        65.528900        2.1715800
       26812.900        65.505500        2.1117800
       27246.600        65.481800        2.0536000
       27687.300        65.457700        1.9969800
       28135.100        65.433400        1.9419000
       28590.200        65.408800        1.8883000
       29052.600        65.384100        1.8361600
       29522.500        65.363900        1.7854300
       30000.000        65.317500        1.7360800
       30400.000        65.289000        1.7082900
       30700.000        65.272900        1.6788500
       31100.000        65.251500        1.6408100
       31300.000        65.240700        1.6223000
       31442.000        65.233100        1.6093500
       32100.000        65.197800        1.5514100
       32700.000        65.165600        1.5013700
       33400.000        65.128000        1.4460500
       34000.000        65.095800        1.4010900
       34500.000        65.068800        1.3652700
       35000.000        65.041900        1.3308600
       35500.000        65.014600        1.2976000
       36030.000        64.985600        1.2637400
       36500.000        64.959500        1.2348500
       37000.000        64.931700        1.2052300
       37500.000        64.903400        1.1767100
       38000.000        64.875000        1.1492300
       38500.000        64.846200        1.1227300
       39000.000        64.816800        1.0971800
       39500.000        64.787100        1.0725200
       40000.000        64.756800        1.0487100
       40800.000        64.706900        1.0120800
       41100.000        64.687700       0.99902900
       41500.000        64.661600       0.98162700
       41900.000        64.634900       0.96508300
       42300.000        64.607600       0.94854000
       42600.000        64.586600       0.93673300
       43000.000        64.558100       0.92099000
       43400.000        64.528600       0.90599600
       43800.000        64.498300       0.89100200
       44100.000        64.474900       0.88028300
       44500.000        64.442800       0.86599100
       44900.000        64.409500       0.85233700
       45300.000        64.374800       0.83868400
       45600.000        64.347900       0.82888600
       46000.000        64.310500       0.81582200
       46300.000        64.281300       0.80637600
       46500.000        64.261200       0.80007900
       46800.000        64.230100       0.79091300
       47000.000        64.208600       0.78480300
       47300.000        64.175200       0.77590700
       47500.000        64.152200       0.76997700
       47800.000        64.116200       0.76133900
       48000.000        64.091200       0.75558100
       48300.000        64.052000       0.74719200
       48500.000        64.024700       0.74159900
       48800.000        63.981800       0.73344900
       49000.000        63.951700       0.72801600
       49300.000        63.904100       0.72009600
       49500.000        63.870600       0.71481600
       49800.000        63.817100       0.70711700
       50000.000        63.779200       0.70198400
       50300.000        63.718200       0.69455900
       50400.000        63.696700       0.69208400
       50500.000        63.674500       0.68960900
       50650.000        63.639900       0.68589600
       50800.000        63.603500       0.68218300
       50900.000        63.578200       0.67970800
       51000.000        63.552000       0.67723300
       51150.000        63.510800       0.67372000
       51300.000        63.467100       0.67020600
       51400.000        63.436400       0.66786400
       51500.000        63.404500       0.66552100
       51650.000        63.353700       0.66200800
       51800.000        63.299200       0.65849500
       51900.000        63.260500       0.65615200
       52000.000        63.219600       0.65381000
       52070.000        63.189700       0.65225300
       52150.000        63.153800       0.65047300
       52220.000        63.121000       0.64891500
       52300.000        63.081600       0.64713600
       52400.000        63.029400       0.64491100
       52500.000        62.973200       0.64268600
       52600.000        62.912600       0.64046100
       52650.000        62.880300       0.63934900
       52700.000        62.846700       0.63823700
       52750.000        62.811500       0.63712400
       52800.000        62.774600       0.63601200
       52850.000        62.735900       0.63489900
       52900.000        62.695200       0.63378700
       52980.000        62.625100       0.63209300
       53010.000        62.597200       0.63145800
       53050.000        62.558300       0.63061200
       53090.000        62.517300       0.62976500
       53130.000        62.474200       0.62891800
       53160.000        62.440200       0.62828300
       53200.000        62.392400       0.62743600
       53250.000        62.328400       0.62637800
       53300.000        62.258800       0.62531900
       53320.000        62.229200       0.62489600
       53350.000        62.182600       0.62426100
       53380.000        62.133200       0.62362500
       53400.000        62.098400       0.62320200
       53420.000        62.062100       0.62277900
       53450.000        62.004500       0.62214400
       53470.000        61.963600       0.62172000
       53500.000        61.898200       0.62108500
       53520.000        61.851500       0.62066200
       53550.000        61.776100       0.62002700
       53580.000        61.693000       0.61939200
       53590.000        61.663300       0.61918000
       53600.000        61.632600       0.61896800
       53620.000        61.567400       0.61854500
       53640.000        61.496600       0.61812100
       53655.000        61.439400       0.61780400
       53670.000        61.377800       0.61748600
       53685.000        61.311300       0.61716900
       53700.000        61.239200       0.61685100
       53715.000        61.160100       0.61653400
       53723.000        61.114800       0.61636400
       53730.000        61.073000       0.61621600
       53738.000        61.022500       0.61604700
       53745.000        60.975700       0.61589900
       53753.000        60.918800       0.61572900
       53760.000        60.865800       0.61558100
       53770.000        60.783600       0.61536900
       53780.000        60.692700       0.61515800
       53785.000        60.643200       0.61505200
       53790.000        60.590800       0.61494600
       53795.000        60.534800       0.61484000
       53800.000        60.475100       0.61473400
       53804.000        60.423900       0.61465000
       53808.000        60.369500       0.61456500
       53812.000        60.311500       0.61448000
       53815.000        60.265200       0.61441700
       53819.000        60.199200       0.61433200
       53823.000        60.127800       0.61424700
       53826.000        60.070000       0.61418400
       53830.000        59.986500       0.61409900
       53833.000        59.917800       0.61403600
       53835.000        59.868800       0.61399300
       53838.000        59.789700       0.61393000
       53840.000        59.732400       0.61388700
       53843.000        59.638900       0.61382400
       53845.000        59.570200       0.61378200
       53847.000        59.495600       0.61373900
       53848.500        59.435200       0.61370700
       53850.000        59.370100       0.61367600
       53851.500        59.299700       0.61364400
       53853.000        59.222600       0.61361200
       53854.000        59.167400       0.61359100
       53855.000        59.108100       0.61357000
       53856.500        59.011300       0.61353800
       53858.000        58.901500       0.61350600
       53859.000        58.820100       0.61348500
       53860.000        58.729500       0.61346400
       53861.500        58.573700       0.61343200
       53863.000        58.383000       0.61340000
       53864.000        58.228200       0.61337900
       53865.000        58.039200       0.61335800
       53866.000        57.800000       0.61333700
       53867.000        57.472700       0.61331600
       53867.600        57.204600       0.61330300
       53868.200        56.835700       0.61329000
       53868.800        56.270500       0.61327800
       53869.400        55.247000       0.61326500
       53869.400        55.237800       0.61326500
       53869.500        55.432800        1.3032600
       53869.600        55.620300        1.9932500
       53869.900        56.168400        4.0632200
       53870.500        57.200100        8.2031600
       53871.400        58.425700       0.61322400
       53871.400        58.385300       0.61322200
       53871.500        58.680300       0.61322000
       53872.400        58.297700        4.7903300
       53873.500        58.343000        1.2943800
       53874.300        57.612400        2.3281400
       53875.000        57.647300        3.3769900
       53876.000        58.278600        3.3691700
       53877.000        58.496500        3.3613000
       53877.800        58.619400        3.3550100
       53878.500        58.708700        3.3495100
       53879.200        58.787100        3.3439100
       53880.000        58.865800        3.3375100
       53881.000        58.951800        3.3295500
       53882.000        59.026900        3.3215900
       53883.000        59.093200        3.3170000
       53884.000        59.154900        3.3123700
       53884.800        59.200000        3.3087000
       53885.500        59.236400        3.3054900
       53886.200        59.270900        3.3039000
       53887.000        59.308000        3.3020900
       53888.500        59.374000        3.3004700
       53890.000        59.433700        3.2988500
       53891.500        59.488500        3.3012500
       53893.000        59.541400        3.3036600
       53894.500        59.590700        3.3066800
       53896.000        59.637400        3.3097100
       53898.000        59.697200        3.3153700
       53900.000        59.754200        3.3210200
       53903.000        59.835300        3.3291500
       53907.000        59.936900        3.3382000
       53911.000        60.031200        3.3444500
       53915.000        60.118300        3.3469200
       53919.000        60.198100        3.3464500
       53923.000        60.270700        3.3439500
       53927.000        60.336800        3.3401100
       53930.000        60.382300        3.3372300
       53934.000        60.438300        3.3339100
       53938.000        60.490300        3.3305800
       53942.000        60.538300        3.3286700
       53945.000        60.572700        3.3272300
       53953.000        60.657400        3.3260100
       53960.000        60.725900        3.3268100
       53968.000        60.800000        3.3273900
       53975.000        60.861400        3.3278900
       53983.000        60.926000        3.3269500
       53990.000        60.978600        3.3261200
       53997.000        61.028400        3.3254900
       54005.000        61.081500        3.3247600
       54013.000        61.131900        3.3240400
       54020.000        61.173800        3.3234100
       54028.000        61.219400        3.3226900
       54035.000        61.257400        3.3220600
       54050.000        61.333900        3.3207000
       54065.000        61.404400        3.3194300
       54080.000        61.469700        3.3181700
       54090.000        61.510700        3.3173200
       54100.000        61.549900        3.3164800
       54120.000        61.623500        3.3148800
       54140.000        61.691800        3.3132900
       54160.000        61.755400        3.3116900
       54180.000        61.815000        3.3100900
       54200.000        61.871200        3.3084900
       54220.000        61.924300        3.3069000
       54235.000        61.962000        3.3057000
       54250.000        61.998200        3.3045000
       54270.000        62.044200        3.3024800
       54290.000        62.088000        3.3004700
       54310.000        62.129800        3.2984500
       54330.000        62.169700        3.2964400
       54360.000        62.226300        3.2934100
       54400.000        62.296300        3.2893800
       54440.000        62.361200        3.2861900
       54480.000        62.422600        3.2830100
       54510.000        62.466300        3.2806200
       54550.000        62.521900        3.2774400
       54590.000        62.574700        3.2742500
       54630.000        62.625200        3.2710600
       54660.000        62.661100        3.2686800
       54700.000        62.707000        3.2654900
       54750.000        62.761200        3.2599100
       54800.000        62.811800        3.2543400
       54850.000        62.859500        3.2493800
       54900.000        62.905000        3.2444300
       54980.000        62.973300        3.2374500
       55050.000        63.028600        3.2313400
       55130.000        63.088700        3.2243500
       55200.000        63.138600        3.2182400
       55270.000        63.186100        3.2127000
       55350.000        63.237800        3.2063600
       55420.000        63.280900        3.2008200
       55500.000        63.328200        3.1944900
       55570.000        63.368000        3.1884900
       55650.000        63.412000        3.1816300
       55720.000        63.449000        3.1756300
       55800.000        63.489800        3.1687700
       55900.000        63.538700        3.1602000
       56000.000        63.585100        3.1516300
       56100.000        63.629200        3.1418800
       56200.000        63.671100        3.1321200
       56300.000        63.711100        3.1223700
       56400.000        63.749300        3.1126200
       56500.000        63.785800        3.1030600
       56600.000        63.820800        3.0935100
       56700.000        63.854300        3.0839500
       56800.000        63.886600        3.0744000
       56900.000        63.917500        3.0655400
       57000.000        63.947000        3.0566700
       57100.000        63.975500        3.0478100
       57200.000        64.003500        3.0389500
       57400.000        64.057000        3.0225200
       57530.000        64.090100        3.0118400
       57660.000        64.122200        3.0017400
       57800.000        64.155200        2.9908700
       57900.000        64.178100        2.9831100
       58000.000        64.200700        2.9753400
       58300.000        64.266000        2.9534000
       58500.000        64.307800        2.9387800
       58650.000        64.338200        2.9272000
       58800.000        64.367300        2.9156300
       58900.000        64.386200        2.9079100
       59000.000        64.404700        2.9001900
       59300.000        64.458300        2.8770400
       59540.000        64.499000        2.8585200
       59600.000        64.508800        2.8538600
       59670.000        64.520200        2.8484200
       59800.000        64.540800        2.8383200
       59900.000        64.556300        2.8306300
       59950.000        64.564000        2.8267800
       60000.000        64.571600        2.8229400
       60200.000        64.601400        2.8073500
       60400.000        64.629700        2.7917600
       60600.000        64.657000        2.7761700
       60800.000        64.683200        2.7605800
       60950.000        64.702200        2.7493100
       61100.000        64.720700        2.7380300
       61300.000        64.744600        2.7230000
       61500.000        64.767800        2.7079700
       61700.000        64.790100        2.6935400
       61900.000        64.811700        2.6791000
       62100.000        64.832500        2.6646700
       62300.000        64.852800        2.6502400
       62600.000        64.882100        2.6295100
       62800.000        64.901000        2.6156900
       63000.000        64.919400        2.6018700
       63300.000        64.946000        2.5818700
       63500.000        64.963100        2.5685300
       63800.000        64.987900        2.5485300
       64000.000        65.003800        2.5351900
       64300.000        65.027000        2.5160000
       64500.000        65.041900        2.5032100
       64800.000        65.063500        2.4840100
       65000.000        65.077300        2.4712200
       65300.000        65.097400        2.4532100
       65500.000        65.110600        2.4412100
       65700.000        65.123500        2.4292000
       65900.000        65.136100        2.4172000
       66200.000        65.154500        2.3998300
       66400.000        65.166400        2.3882500
       66600.000        65.178100        2.3766800
       66830.000        65.191200        2.3633600
       66960.000        65.198500        2.3560500
       67100.000        65.206300        2.3481800
       67400.000        65.222500        2.3313200
       67700.000        65.238300        2.3148300
       68000.000        65.253600        2.2983400
       68300.000        65.268500        2.2821900
       68500.000        65.278100        2.2714300
       68800.000        65.292200        2.2552800
       69000.000        65.301300        2.2445200
       69300.000        65.314700        2.2289800
       69500.000        65.323400        2.2186100
       69800.000        65.336200        2.2030700
       70000.000        65.344600        2.1927100
       70300.000        65.356800        2.1775400
       70500.000        65.364700        2.1674200
       70800.000        65.376200        2.1522500
       71000.000        65.383700        2.1421400
       71300.000        65.394700        2.1275200
       71500.000        65.401800        2.1177800
       71800.000        65.412300        2.1031600
       72000.000        65.419100        2.0934200
       72400.000        65.432300        2.0747500
       72800.000        65.445100        2.0560700
       73200.000        65.457500        2.0374000
       73500.000        65.466500        2.0233900
       73900.000        65.478000        2.0055800
       74200.000        65.486400        1.9922200
       74600.000        65.497200        1.9744100
       74960.000        65.506600        1.9583800
       75200.000        65.512800        1.9479800
       75500.000        65.520300        1.9349900
       76000.000        65.532200        1.9137100
       76600.000        65.545800        1.8888900
       77110.000        65.556800        1.8677900
       77900.000        65.573000        1.8364000
       78600.000        65.586600        1.8085900
       79300.000        65.599200        1.7816200
       79700.000        65.606100        1.7665700
       80000.000        65.611100        1.7552800
       80800.000        65.623800        1.7258900
       81500.000        65.634000        1.7001700
       82300.000        65.644800        1.6722100
       83000.000        65.653600        1.6477400
       83500.000        65.659500        1.6309600
       84000.000        65.665100        1.6141700
       84500.000        65.670500        1.5979300
       85000.000        65.675500        1.5816800
       85800.000        65.683100        1.5569200
       86500.000        65.689400        1.5352500
       87300.000        65.696100        1.5116200
       88000.000        65.701600        1.4909500
       89000.000        65.709000        1.4625300
       90000.000        65.715600        1.4349700
       91500.000        65.724600        1.3951700
       93000.000        65.732400        1.3571000
       94000.000        65.737100        1.3326300
       95000.000        65.741500        1.3088500
       96500.000        65.747300        1.2739100
       98000.000        65.752000        1.2404200
       99000.000        65.754800        1.2188600
       99500.000        65.756100        1.2083000
       100000.00        65.757300        1.1978800
