;  Atomic scattering factors for Eu.
;   
;  Concatenation of data from CXRO <http://www-cxro.lbl.gov>
;  and LLNL <http://www-phys.llnl.gov/V_Div/scattering/asf.html>
;  
;  E (eV) f1 f2
;---------------
       10.000000       -9999.0000       0.18583400
       10.161700       -9999.0000       0.19489000
       10.326100       -9999.0000       0.20438700
       10.493100       -9999.0000       0.21434600
       10.662800       -9999.0000       0.22479100
       10.835300       -9999.0000       0.23529300
       11.010600       -9999.0000       0.24598100
       11.188600       -9999.0000       0.25715500
       11.369600       -9999.0000       0.26817200
       11.553500       -9999.0000       0.27854500
       11.740400       -9999.0000       0.28931900
       11.930300       -9999.0000       0.30051000
       12.123200       -9999.0000       0.31081900
       12.319300       -9999.0000       0.32112700
       12.518600       -9999.0000       0.33177700
       12.721000       -9999.0000       0.34304400
       12.926800       -9999.0000       0.35577800
       13.135900       -9999.0000       0.36898400
       13.348300       -9999.0000       0.38268000
       13.564200       -9999.0000       0.39672700
       13.783600       -9999.0000       0.40829500
       14.006600       -9999.0000       0.42124800
       14.233100       -9999.0000       0.43461300
       14.463300       -9999.0000       0.44840200
       14.697300       -9999.0000       0.46240700
       14.935000       -9999.0000       0.47662200
       15.176500       -9999.0000       0.49127300
       15.422000       -9999.0000       0.50637500
       15.671400       -9999.0000       0.52094800
       15.924900       -9999.0000       0.53382100
       16.182500       -9999.0000       0.54701300
       16.444200       -9999.0000       0.56053100
       16.710200       -9999.0000       0.57532100
       16.980500       -9999.0000       0.59239900
       17.255100       -9999.0000       0.60998300
       17.534200       -9999.0000       0.62809000
       17.817800       -9999.0000       0.64679200
       18.106000       -9999.0000       0.66616600
       18.398900       -9999.0000       0.68612100
       18.696400       -9999.0000       0.70667200
       18.998800       -9999.0000       0.72993000
       19.306100       -9999.0000       0.75732700
       19.618400       -9999.0000       0.78575200
       19.935700       -9999.0000       0.82809300
       20.258200       -9999.0000       0.88387500
       20.585800       -9999.0000       0.96902600
       20.918800       -9999.0000        1.1304200
       21.257100       -9999.0000        1.3297500
       21.600900       -9999.0000        1.7092900
       21.950300       -9999.0000        2.0542500
       22.305300       -9999.0000        2.5696300
       22.666100       -9999.0000        3.1339500
       23.032700       -9999.0000        3.6644600
       23.405300       -9999.0000        4.5217000
       23.783800       -9999.0000        5.2034300
       24.168500       -9999.0000        7.0790100
       24.559400       -9999.0000        9.0533600
       24.956600       -9999.0000        10.263300
       25.360300       -9999.0000        11.545700
       25.770500       -9999.0000        12.784400
       26.187300       -9999.0000        13.815900
       26.610900       -9999.0000        14.492800
       27.041300       -9999.0000        15.166900
       27.478600       -9999.0000        15.785900
       27.923100       -9999.0000        16.430200
       28.374700       -9999.0000        16.626400
       28.833700       -9999.0000        16.742100
       29.300000        2.9077500        16.653000
       29.773900        3.7845300        16.496400
       30.255500        4.5698300        16.341300
       30.744900        5.3257000        16.187600
       31.242100        6.1086300        16.035400
       31.747500        6.8417800        15.664200
       32.260900        7.4359900        15.293800
       32.782700        7.9498600        14.932100
       33.313000        8.4065400        14.585700
       33.851800        8.8212700        14.248000
       34.399300        9.2001100        13.918100
       34.955700        9.5488800        13.595800
       35.521100        9.8754200        13.281000
       36.095600        10.196100        12.954400
       36.679400        10.465400        12.602300
       37.272700        10.686000        12.259700
       37.875500        10.853800        11.933700
       38.488200        11.017400        11.675300
       39.110700        11.201600        11.422500
       39.743200        11.425200        11.143600
       40.386100        11.580900        10.766200
       41.039300        11.636700        10.401600
       41.703100        11.578500        10.141900
       42.377600        11.595600        9.9646300
       43.063000        11.644400        9.7904700
       43.759500        11.705600        9.6134700
       44.467300        11.759000        9.4261800
       45.186500        11.804300        9.2425300
       45.917400        11.846400        9.0580300
       46.660000        11.868300        8.8635500
       47.414700        11.863100        8.6732600
       48.181600        11.813200        8.5017700
       48.960900        11.775500        8.4042600
       49.752800        11.761200        8.3078700
       50.557600        11.757200        8.2125800
       51.375300        11.758800        8.1183900
       52.206200        11.758600        8.0143300
       53.050600        11.749300        7.9112900
       53.908700        11.729200        7.8095600
       54.780600        11.688400        7.7091400
       55.666700        11.631600        7.6536400
       56.567000        11.597900        7.6120900
       57.482000        11.575000        7.5707700
       58.411700        11.553900        7.5296800
       59.356400        11.529200        7.4888000
       60.316500        11.505700        7.4605500
       61.292100        11.485800        7.4324300
       62.283400        11.464600        7.4044400
       63.290800        11.436200        7.3765500
       64.314500        11.404200        7.3666100
       65.354700        11.379900        7.3610300
       66.411800        11.356100        7.3554600
       67.485900        11.324500        7.3499000
       68.577500        11.282600        7.3703700
       69.686700        11.263900        7.4070200
       70.813800        11.259500        7.4438500
       71.959100        11.268400        7.4808800
       73.123000        11.294000        7.5088400
       74.305700        11.320700        7.5128700
       75.507600        11.335800        7.5113400
       76.728900        11.344100        7.5098100
       77.969900        11.349000        7.5082700
       79.231000        11.351100        7.5067400
       80.512500        11.351100        7.5052100
       81.814700        11.349400        7.5036800
       83.138000        11.346900        7.5021500
       84.482700        11.346100        7.5006200
       85.849100        11.356600        7.4919200
       87.237700        11.352300        7.4564600
       88.648700        11.332100        7.4211600
       90.082500        11.300300        7.3860300
       91.539500        11.259400        7.3510600
       93.020100        11.210700        7.3162600
       94.524600        11.157100        7.2816200
       96.053500        11.109700        7.2471500
       97.607100        11.057300        7.1708100
       99.185800        10.966000        7.0814600
       100.79000        10.848600        6.9932100
       102.42000        10.712200        6.9060600
       104.07700        10.572100        6.8200000
       105.76000        10.453300        6.6663500
       107.47100        10.234500        6.4564200
       109.20900        9.9435100        6.2531000
       110.97500        9.6106100        6.0047200
       112.77000        9.1424300        5.7192000
       114.59400        8.5587900        5.4472600
       116.44800        7.8892300        5.1571400
       118.33100        7.0164000        4.8313700
       120.24500        5.9149500        4.5261600
       122.19000        4.5529600        4.2645700
       124.16600        2.8831500        4.0348200
       126.17500       0.76346700        3.8064600
       128.21500       -2.1101000        3.5545200
       130.28900       -6.4800000        3.3192700
       132.39700       -16.332800        4.3631400
       134.53800       -25.702400        15.048500
       136.71400       -34.636400        41.361100
       138.92500       -9.7149000        66.174800
       141.17200        17.120800        57.802700
       143.45600        28.564400        42.062000
       145.77600        26.172300        31.492300
       148.13400        24.344200        27.977500
       150.53000        22.814700        25.512500
       152.96400        22.230300        24.705900
       155.43900        22.337000        23.924800
       157.95300        22.545700        23.183200
       160.50700        22.792800        22.488700
       163.10300        23.056800        21.874700
       165.74200        23.332100        21.287300
       168.42200        23.603500        20.744900
       171.14600        23.874900        20.222600
       173.91500        24.130600        19.713400
       176.72700        24.350100        19.217000
       179.58600        24.555300        18.776300
       182.49100        24.763400        18.350300
       185.44200        24.963300        17.933900
       188.44200        25.152000        17.526900
       191.48900        25.330300        17.129200
       194.58700        25.518200        16.732300
       197.73400        25.669300        16.301900
       200.93200        25.777200        15.882500
       204.18200        25.852600        15.474000
       207.48500        25.894800        15.075900
       210.84000        25.897900        14.688100
       214.25100        25.814400        14.310300
       217.71600        25.706500        14.080700
       221.23700        25.661400        13.892300
       224.81600        25.641400        13.706500
       228.45200        25.630200        13.523100
       232.14700        25.620200        13.342100
       235.90200        25.606100        13.163600
       239.71700        25.582700        12.987500
       243.59500        25.541700        12.813700
       247.53500        25.456000        12.642300
       251.53800        25.351200        12.573700
       255.60700        25.292000        12.536500
       259.74100        25.267100        12.499300
       263.94200        25.254400        12.462200
       268.21100        25.248700        12.425300
       272.54900        25.245400        12.388400
       276.95700        25.225600        12.358800
       281.43700        25.221000        12.357100
       285.98900        25.232400        12.355300
       290.61500        25.249700        12.353500
       295.31500        25.269600        12.351700
       300.09200        25.288800        12.350000
       304.94500        25.302900        12.348200
       309.87800        25.298600        12.346400
       314.89000        25.265600        12.396500
       319.98300        25.271600        12.488700
       325.15800        25.314200        12.581700
       330.41800        25.374600        12.675300
       335.76200        25.450700        12.769600
       341.19200        25.541500        12.864600
       346.71100        25.648900        12.960400
       352.31900        25.776100        13.049300
       358.01700        25.907700        13.127000
       363.80800        26.046100        13.204500
       369.69200        26.194300        13.282500
       375.67200        26.355800        13.361100
       381.74800        26.536800        13.440200
       387.92200        26.751200        13.507800
       394.19700        26.991700        13.548800
       400.57300        27.234800        13.525500
       407.05200        27.439200        13.476800
       413.63500        27.622300        13.428100
       420.32600        27.793400        13.379600
       427.12400        27.956300        13.331300
       434.03200        28.113400        13.283200
       441.05200        28.266500        13.235300
       448.18600        28.421900        13.185900
       455.43500        28.572600        13.128600
       462.80200        28.717300        13.065700
       470.28700        28.853900        13.000000
       477.89400        28.983600        12.934800
       485.62300        29.108600        12.869800
       493.47800        29.229800        12.805100
       501.45900        29.348000        12.740800
       509.57000        29.464500        12.676700
       517.81200        29.582800        12.611300
       526.18700        29.701200        12.540200
       534.69800        29.815800        12.458200
       543.34600        29.919100        12.371000
       552.13400        30.016500        12.284400
       561.06500        30.108400        12.191300
       570.13900        30.191200        12.095300
       579.36100        30.263700        11.998000
       588.73200        30.328000        11.901300
       598.25400        30.384900        11.805300
       607.93000        30.435100        11.709900
       617.76300        30.479500        11.615300
       627.75500        30.521600        11.520800
       637.90800        30.559900        11.418800
       648.22600        30.589000        11.305200
       658.71100        30.596600        11.184600
       669.36500        30.582000        11.065400
       680.19100        30.547700        10.964600
       691.19300        30.512100        10.878000
       702.37200        30.485800        10.794500
       713.73300        30.456800        10.695400
       725.27700        30.407800        10.586200
       737.00800        30.341200        10.478100
       748.92800        30.259400        10.371200
       761.04200        30.163400        10.265200
       773.35100        30.054000        10.158000
       785.85900        29.928100        10.044800
       798.57000        29.776600        9.9269100
       811.48600        29.599900        9.8104900
       824.61100        29.397900        9.6953600
       837.94900        29.169400        9.5814900
       851.50200        28.911600        9.4667100
       865.27400        28.620400        9.3506400
       879.26900        28.289000        9.2336600
       893.49100        27.913300        9.1180700
       907.94300        27.488200        9.0039600
       922.62800        27.008000        8.8913300
       937.55100        26.459900        8.7738800
       952.71500        25.829500        8.6565600
       968.12400        25.099600        8.5396000
       983.78300        24.248200        8.4239700
       999.69500        23.244500        8.3095300
       1015.8600        22.043600        8.1962600
       1032.2900        20.573900        8.0805600
       1048.9900        18.721400        7.9653700
       1065.9600        16.283600        7.8506500
       1083.2000        12.847000        7.7376000
       1100.7200        7.3298300        7.6260700
       1118.5200       -5.3985500        7.5160000
       1127.4000       -60.848900        7.4623600
       1127.6000       -60.813900        46.744800
       1136.6100       -3.7485700        46.226200
       1155.0000        10.962200        45.198400
       1173.6800        18.106500        44.193600
       1192.6600        22.931800        43.210700
       1211.9500        26.590000        42.249800
       1231.5500        29.533200        41.310300
       1251.4700        31.987800        40.393000
       1271.7200        34.084500        39.498100
       1292.2900        35.908100        38.625300
       1313.1900        37.513100        37.771400
       1334.4300        38.937500        36.936600
       1356.0100        40.209900        36.120600
       1377.9400        41.350900        35.322000
       1400.2300        42.375700        34.541100
       1422.8800        43.295700        33.777700
       1445.8900        44.118500        33.031500
       1469.2800        44.846200        32.301700
       1480.5000        45.171200        31.961300
       1480.7000        45.175500        31.937600
       1493.0400        45.453500        31.604300
       1517.1900        46.008800        30.969700
       1541.7300        46.488500        30.347800
       1566.6700        46.848700        29.738100
       1592.0100        46.951000        29.140900
       1613.8000        43.824400        28.644200
       1614.0000        43.830700        30.775900
       1617.7600        46.412000        30.675500
       1643.9200        48.373400        29.991500
       1670.5100        49.288500        29.322700
       1697.5300        49.972900        28.668800
       1724.9900        50.517500        28.029600
       1752.8900        50.931100        27.404300
       1781.2400        51.121000        26.792900
       1799.9000        49.525600        26.403000
       1800.1000        49.528800        27.545900
       1810.0500        51.371700        27.343200
       1839.3200        52.311900        26.761600
       1869.0700        52.926900        26.192600
       1899.3000        53.440500        25.636500
       1930.0200        53.894500        25.091500
       1961.2400        54.305600        24.558000
       1992.9600        54.678700        24.035800
       2025.2000        55.032100        23.534500
       2057.9500        55.364500        23.025900
       2091.2400        55.670000        22.526100
       2125.0600        55.952500        22.035300
       2159.4300        56.215000        21.553200
       2194.3600        56.458400        21.079800
       2229.8500        56.684800        20.616000
       2265.9200        56.895500        20.160600
       2302.5700        57.091400        19.714400
       2339.8100        57.273400        19.276600
       2377.6600        57.442700        18.847700
       2416.1100        57.599900        18.426900
       2455.1900        57.745500        18.014400
       2494.9000        57.880100        17.609700
       2535.2600        58.003900        17.213100
       2576.2600        58.118000        16.825100
       2617.9300        58.223000        16.444900
       2660.2700        58.318900        16.072300
       2703.3000        58.406500        15.707700
       2747.0300        58.486500        15.350600
       2791.4600        58.558700        15.000300
       2836.6100        58.623300        14.658000
       2882.4900        58.681500        14.323200
       2929.1100        58.733100        13.994800
       2976.4800        58.778100        13.673700
       3024.6300        58.817500        13.359500
       3073.5500        58.851100        13.051700
       3123.2600        58.878900        12.750700
       3173.7800        58.901400        12.456400
       3225.1100        58.919500        12.168800
       3277.2700        58.932500        11.886600
       3330.2800        58.940600        11.611200
       3384.1500        58.944600        11.341700
       3438.8800        58.944200        11.078000
       3494.5000        58.939500        10.820000
       3551.0200        58.930800        10.567800
       3608.4600        58.918100        10.321100
       3666.8200        58.901600        10.079900
       3726.1300        58.881400        9.8440100
       3786.4000        58.857500        9.6134000
       3847.6400        58.830000        9.3879100
       3909.8700        58.798900        9.1673900
       3973.1100        58.764300        8.9518200
       4037.3800        58.726200        8.7410800
       4102.6800        58.684700        8.5349500
       4169.0300        58.639500        8.3335000
       4236.4600        58.590800        8.1365200
       4304.9800        58.538600        7.9440800
       4374.6200        58.482700        7.7558500
       4445.3700        58.423000        7.5717900
       4517.2700        58.359400        7.3919600
       4590.3300        58.292000        7.2162600
       4664.5800        58.220400        7.0443600
       4740.0300        58.144200        6.8762300
       4816.6900        58.063400        6.7120900
       4894.6000        57.977700        6.5516500
       4973.7700        57.886800        6.3947800
       5054.2100        57.790300        6.2414400
       5135.9600        57.687500        6.0915300
       5219.0300        57.578000        5.9449300
       5303.4400        57.461000        5.8016300
       5389.2200        57.335700        5.6615800
       5476.3900        57.201100        5.5248400
       5564.9700        57.056200        5.3910500
       5654.9800        56.899300        5.2603100
       5746.4400        56.728700        5.1324700
       5839.3900        56.541900        5.0073900
       5933.8300        56.335800        4.8851900
       6029.8100        56.106800        4.7660200
       6127.3300        55.849600        4.6491700
       6226.4400        55.556600        4.5350400
       6327.1500        55.217300        4.4235100
       6429.4800        54.815300        4.3144200
       6533.4800        54.323600        4.2078200
       6639.1500        53.692400        4.1035200
       6746.5400        52.812800        4.0016100
       6855.6500        51.353300        3.9018800
       6966.5400        45.802200        3.8044900
       6976.8000        35.249400        3.7956700
       6977.0000        35.250500        10.955500
       7079.2200        51.072800        10.650100
       7193.7200        52.641000        10.323000
       7310.0700        53.329900        10.005600
       7428.3100        53.505400        9.6981100
       7548.4500        52.895700        9.4002200
       7617.0000        45.650300        9.2364200
       7617.2000        45.651400        12.852500
       7670.5400        53.063300        12.684700
       7794.6100        54.702400        12.307300
       7920.6800        55.336600        11.940700
       8048.7900        54.059100        11.585300
       8051.9000        52.219300        11.576800
       8052.1000        52.220100        13.256600
       8178.9800        56.582400        12.956100
       8311.2600        57.444800        12.654800
       8445.6900        58.085200        12.358500
       8582.2900        58.610800        12.067000
       8721.1100        59.060100        11.780400
       8862.1600        59.452400        11.498800
       9005.5000        59.800000        11.222600
       9151.1600        60.110800        10.950700
       9299.1700        60.390100        10.684400
       9449.5800        60.643100        10.423300
       9602.4200        60.872800        10.166900
       9757.7300        61.081700        9.9157300
       9915.5500        61.272400        9.6698300
       10075.900        61.446900        9.4285600
       10238.900        61.606300        9.1922400
       10404.500        61.752300        8.9608300
       10572.800        61.885800        8.7343000
       10743.800        62.008100        8.5126000
       10917.600        62.120000        8.2956700
       11094.200        62.222300        8.0834700
       11273.600        62.315800        7.8759500
       11455.900        62.401000        7.6730400
       11641.200        62.478700        7.4746900
       11829.500        62.549400        7.2808200
       12020.800        62.613400        7.0913900
       12215.300        62.671400        6.9063200
       12412.800        62.723700        6.7255500
       12613.600        62.770600        6.5490100
       12817.600        62.812600        6.3766300
       13025.000        62.850000        6.2083400
       13235.600        62.883000        6.0440800
       13449.700        62.912000        5.8837600
       13667.200        62.937200        5.7273200
       13888.300        62.958800        5.5746900
       14112.900        62.977200        5.4258000
       14341.200        62.992400        5.2805700
       14573.100        63.004700        5.1389300
       14808.900        63.014300        5.0008200
       15048.400        63.021300        4.8661600
       15291.800        63.026000        4.7348800
       15539.100        63.028400        4.6069200
       15790.400        63.028700        4.4822000
       16045.800        63.027100        4.3606500
       16305.400        63.023600        4.2422100
       16569.100        63.018500        4.1268000
       16837.100        63.011700        4.0143700
       17109.400        63.003500        3.9048500
       17386.100        62.993800        3.7981700
       17667.400        62.982900        3.6942600
       17953.100        62.970700        3.5930700
       18243.500        62.957400        3.4945300
       18538.600        62.943000        3.3985800
       18838.400        62.927700        3.3051500
       19143.100        62.911400        3.2142000
       19452.700        62.894300        3.1256700
       19767.400        62.876400        3.0394800
       20087.100        62.857700        2.9555900
       20412.000        62.838300        2.8739400
       20742.100        62.818300        2.7944900
       21077.600        62.797700        2.7171600
       21418.500        62.776500        2.6419100
       21765.000        62.754800        2.5687000
       22117.000        62.732500        2.4974600
       22474.700        62.709800        2.4281500
       22838.200        62.686700        2.3607300
       23207.600        62.663200        2.2951300
       23583.000        62.639200        2.2313300
       23964.400        62.614900        2.1692600
       24352.000        62.590200        2.1088900
       24745.900        62.565200        2.0501700
       25146.200        62.539800        1.9930700
       25552.900        62.514100        1.9375300
       25966.200        62.488100        1.8835200
       26386.100        62.461800        1.8310000
       26812.900        62.435100        1.7799200
       27246.600        62.408100        1.7302600
       27687.300        62.380700        1.6819700
       28135.100        62.353100        1.6350200
       28590.200        62.325100        1.5893600
       29052.600        62.297000        1.5449800
       29522.500        62.272500        1.5018300
       30000.000        62.225700        1.4598700
       30400.000        62.159700        1.4073500
       30800.000        62.135700        1.3749100
       31200.000        62.111500        1.3436200
       31500.000        62.093400        1.3208700
       31900.000        62.068900        1.2914700
       32300.000        62.044500        1.2630700
       32600.000        62.026000        1.2424100
       33000.000        62.001300        1.2156700
       33400.000        61.976300        1.1897000
       33800.000        61.951200        1.1645900
       34100.000        61.932000        1.1463000
       34500.000        61.906400        1.1225900
       34900.000        61.880200        1.0996500
       35300.000        61.854000        1.0773600
       35700.000        61.827000        1.0557600
       36030.000        61.804700        1.0384400
       36500.000        61.772100        1.0145200
       37000.000        61.736500       0.99001100
       37500.000        61.699900       0.96640700
       38000.000        61.662100       0.94366700
       38500.000        61.623100       0.92174900
       39000.000        61.582500       0.90061300
       39500.000        61.540300       0.88022200
       39800.000        61.514000       0.86841300
       40000.000        61.496100       0.86054100
       40400.000        61.459100       0.84539500
       40800.000        61.420500       0.83025000
       41100.000        61.390400       0.81946300
       41500.000        61.348400       0.80508100
       41900.000        61.304100       0.79141000
       42300.000        61.257200       0.77773900
       42600.000        61.220100       0.76798500
       42800.000        61.194400       0.76148200
       43000.000        61.167700       0.75497900
       43200.000        61.140100       0.74878700
       43400.000        61.111400       0.74259500
       43600.000        61.081600       0.73640200
       43800.000        61.050500       0.73021000
       43950.000        61.026400       0.72577400
       44100.000        61.001400       0.72133800
       44300.000        60.966700       0.71542300
       44500.000        60.930300       0.70950800
       44700.000        60.892000       0.70386100
       44900.000        60.851500       0.69821400
       45100.000        60.808700       0.69256800
       45300.000        60.763200       0.68692100
       45450.000        60.727200       0.68287900
       45600.000        60.689200       0.67883700
       45800.000        60.635400       0.67344800
       46000.000        60.577300       0.66805900
       46070.000        60.555800       0.66623000
       46150.000        60.530500       0.66413900
       46300.000        60.480500       0.66022000
       46450.000        60.426900       0.65637100
       46530.000        60.396700       0.65431900
       46600.000        60.369100       0.65252300
       46700.000        60.328000       0.65003300
       46800.000        60.284500       0.64754400
       46900.000        60.238200       0.64505400
       47000.000        60.189000       0.64256400
       47070.000        60.152500       0.64082100
       47150.000        60.108600       0.63883000
       47220.000        60.068000       0.63708700
       47300.000        60.018800       0.63509500
       47380.000        59.966100       0.63317900
       47450.000        59.917000       0.63150200
       47530.000        59.856700       0.62958600
       47600.000        59.799800       0.62791000
       47680.000        59.729400       0.62599400
       47720.000        59.691600       0.62503600
       47750.000        59.662100       0.62431700
       47790.000        59.620900       0.62336000
       47830.000        59.577500       0.62240100
       47860.000        59.543200       0.62168300
       47900.000        59.495200       0.62072500
       47940.000        59.444200       0.61980200
       47980.000        59.389600       0.61887900
       48010.000        59.346200       0.61818700
       48050.000        59.284400       0.61726400
       48090.000        59.217400       0.61634200
       48130.000        59.144600       0.61541900
       48160.000        59.085300       0.61472700
       48180.000        59.043300       0.61426500
       48200.000        58.999000       0.61380400
       48230.000        58.927800       0.61311200
       48250.000        58.876700       0.61265000
       48270.000        58.822300       0.61218900
       48300.000        58.733300       0.61149700
       48320.000        58.668300       0.61103600
       48335.000        58.616000       0.61069000
       48350.000        58.560200       0.61034300
       48365.000        58.500500       0.60999700
       48380.000        58.436200       0.60965100
       48390.000        58.390400       0.60942100
       48400.000        58.342100       0.60919000
       48410.000        58.290800       0.60895900
       48420.000        58.236300       0.60872900
       48430.000        58.178000       0.60849800
       48440.000        58.115400       0.60826700
       48450.000        58.047900       0.60803600
       48455.000        58.012000       0.60792100
       48460.000        57.974600       0.60780600
       48468.000        57.911100       0.60762100
       48475.000        57.851300       0.60746000
       48483.000        57.777600       0.60727500
       48490.000        57.707500       0.60711400
       48495.000        57.653600       0.60699800
       48500.000        57.596200       0.60688300
       48505.000        57.534700       0.60676800
       48510.000        57.468500       0.60665200
       48515.000        57.396700       0.60653700
       48520.000        57.318500       0.60642200
       48525.000        57.232600       0.60630600
       48530.000        57.137200       0.60619100
       48533.000        57.074400       0.60612200
       48535.000        57.029800       0.60607600
       48538.000        56.958500       0.60600600
       48540.000        56.907500       0.60596000
       48543.000        56.824800       0.60589100
       48545.000        56.765000       0.60584500
       48548.000        56.666700       0.60577600
       48550.000        56.594600       0.60572900
       48551.500        56.536200       0.60569500
       48553.000        56.473500       0.60566000
       48554.500        56.406100       0.60562600
       48556.000        56.332800       0.60559100
       48557.500        56.253100       0.60555600
       48559.000        56.165000       0.60552200
       48560.500        56.067400       0.60548700
       48562.000        55.956800       0.60545300
       48563.500        55.830800       0.60541800
       48565.000        55.683000       0.60538300
       48565.800        55.592800       0.60536500
       48566.500        55.505500       0.60534900
       48567.200        55.408200       0.60533300
       48568.000        55.282200       0.60531400
       48568.800        55.135600       0.60529600
       48569.500        54.983600       0.60528000
       48570.300        54.772100       0.60526100
       48571.000        54.535400       0.60524500
       48571.700        54.222300       0.60522900
       48572.300        53.843000       0.60521500
       48572.900        53.258600       0.60520100
       48573.600        52.038500       0.60518500
       48573.600        52.027500       0.60518500
       48573.700        52.275600        1.5464100
       48573.800        52.508400        2.4876400
       48574.100        53.207900        5.3113300
       48574.500        54.092100        9.0762400
       48575.000        55.115300        4.8406900
       48575.500        55.866400       0.60514100
       48575.500        55.858500       0.60514000
       48575.600        55.646100       0.60514000
       48576.000        55.349600       0.60513000
       48576.500        55.300300        5.2826300
       48577.000        55.421200       0.77483600
       48577.500        55.565100        1.1690000
       48578.300        54.575900        2.2661900
       48579.000        54.623200        3.4198100
       48579.500        54.936000        3.4145200
       48580.000        55.300600        3.4092400
       48580.500        55.427100        3.4039300
       48581.000        55.528000        3.3986200
       48581.400        55.594800        3.3944400
       48581.800        55.655200        3.3902600
       48582.500        55.747800        3.3829400
       48583.300        55.837400        3.3747300
       48584.000        55.907400        3.3675400
       48584.800        55.976800        3.3610100
       48585.500        56.032600        3.3553000
       48586.300        56.090700        3.3500300
       48587.000        56.137500        3.3454200
       48587.700        56.180600        3.3419800
       48588.500        56.226500        3.3380400
       48589.200        56.264300        3.3357300
       48590.000        56.305100        3.3330900
       48591.500        56.375200        3.3320900
       48593.000        56.439300        3.3310900
       48594.000        56.478900        3.3322300
       48595.000        56.517100        3.3333600
       48596.500        56.571300        3.3369200
       48598.000        56.622800        3.3404900
       48600.000        56.688100        3.3469500
       48603.000        56.780300        3.3565000
       48605.000        56.838400        3.3628600
       48608.000        56.921600        3.3703800
       48610.000        56.974500        3.3753900
       48612.000        57.025400        3.3779600
       48614.000        57.074100        3.3805300
       48618.000        57.165200        3.3816700
       48622.000        57.247700        3.3797900
       48625.000        57.304500        3.3771000
       48629.000        57.373500        3.3727700
       48633.000        57.435900        3.3684400
       48637.000        57.493000        3.3653300
       48640.000        57.532900        3.3630000
       48644.000        57.583000        3.3617000
       48648.000        57.630200        3.3603900
       48655.000        57.707300        3.3609400
       48663.000        57.789500        3.3626600
       48670.000        57.857400        3.3641700
       48677.000        57.921200        3.3637000
       48685.000        57.988900        3.3631700
       48693.000        58.051700        3.3610800
       48700.000        58.102200        3.3592600
       48708.000        58.156400        3.3586200
       48715.000        58.201600        3.3580600
       48723.000        58.250700        3.3574200
       48730.000        58.291600        3.3568600
       48740.000        58.347100        3.3560600
       48750.000        58.399400        3.3552600
       48760.000        58.448900        3.3544600
       48770.000        58.495900        3.3536600
       48785.000        58.562200        3.3524600
       48800.000        58.624100        3.3512600
       48810.000        58.663200        3.3504100
       48820.000        58.700600        3.3495600
       48835.000        58.754200        3.3482900
       48850.000        58.804800        3.3470100
       48865.000        58.852800        3.3457400
       48880.000        58.898600        3.3444700
       48900.000        58.956400        3.3427700
       48930.000        59.036900        3.3397200
       48950.000        59.086900        3.3376800
       48980.000        59.157200        3.3346300
       49000.000        59.201200        3.3326000
       49020.000        59.243300        3.3305700
       49050.000        59.303100        3.3275200
       49080.000        59.359300        3.3244600
       49100.000        59.394800        3.3224300
       49130.000        59.445900        3.3196800
       49150.000        59.478500        3.3178400
       49200.000        59.555700        3.3132500
       49250.000        59.627400        3.3086700
       49300.000        59.694700        3.3040800
       49340.000        59.745500        3.2993400
       49380.000        59.793400        3.2946100
       49410.000        59.827600        3.2910600
       49450.000        59.871200        3.2863200
       49490.000        59.912800        3.2817800
       49530.000        59.952500        3.2772400
       49570.000        59.990500        3.2727000
       49600.000        60.017600        3.2693000
       49650.000        60.061300        3.2649900
       49700.000        60.103700        3.2606700
       49750.000        60.144500        3.2563600
       49800.000        60.183900        3.2520400
       49850.000        60.221900        3.2473700
       49900.000        60.258100        3.2427100
       49950.000        60.293200        3.2390100
       49980.000        60.314200        3.2367900
       50000.000        60.328300        3.2353100
       50070.000        60.375500        3.2279900
       50150.000        60.426000        3.2196100
       50220.000        60.468000        3.2122900
       50300.000        60.513800        3.2039200
       50350.000        60.541300        3.1986900
       50400.000        60.568100        3.1934500
       50500.000        60.619400        3.1829900
       50570.000        60.653800        3.1756400
       50650.000        60.691800        3.1672400
       50720.000        60.723800        3.1598900
       50800.000        60.759400        3.1514900
       50900.000        60.802000        3.1409900
       51000.000        60.842300        3.1304900
       51150.000        60.899000        3.1149900
       51300.000        60.952500        3.0995000
       51400.000        60.986300        3.0891700
       51500.000        61.018500        3.0788400
       51650.000        61.064900        3.0651400
       51800.000        61.109300        3.0514400
       51900.000        61.137600        3.0423100
       52000.000        61.165000        3.0331800
       52150.000        61.205200        3.0204500
       52300.000        61.244000        3.0077100
       52400.000        61.269100        2.9992200
       52500.000        61.293600        2.9907300
       52650.000        61.329200        2.9782300
       52800.000        61.363700        2.9657200
       52900.000        61.386200        2.9573900
       53000.000        61.408400        2.9490500
       53150.000        61.440800        2.9359900
       53300.000        61.471700        2.9229200
       53400.000        61.491700        2.9142100
       53500.000        61.511300        2.9055000
       53650.000        61.539900        2.8924400
       53800.000        61.567600        2.8793700
       53900.000        61.585600        2.8706600
       54000.000        61.603300        2.8619500
       54150.000        61.629200        2.8488400
       54300.000        61.654000        2.8357300
       54400.000        61.670000        2.8269900
       54500.000        61.685700        2.8182500
       54800.000        61.730800        2.7920200
       55000.000        61.759200        2.7745400
       55300.000        61.799900        2.7499600
       55500.000        61.825900        2.7335800
       55800.000        61.863100        2.7090000
       56000.000        61.886900        2.6926100
       56200.000        61.909900        2.6769100
       56400.000        61.932200        2.6612200
       56600.000        61.953400        2.6455300
       56800.000        61.974500        2.6298300
       57000.000        61.994700        2.6146800
       57200.000        62.014200        2.5995400
       57400.000        62.033100        2.5843900
       57530.000        62.045000        2.5745500
       57660.000        62.056800        2.5649800
       57800.000        62.069100        2.5546700
       58000.000        62.086100        2.5399400
       58300.000        62.110800        2.5188800
       58500.000        62.126900        2.5048400
       58800.000        62.150200        2.4844900
       59000.000        62.165300        2.4709200
       59300.000        62.187200        2.4505600
       59540.000        62.204200        2.4342800
       59670.000        62.213100        2.4257100
       59800.000        62.221900        2.4171400
       59900.000        62.228600        2.4106100
       59950.000        62.231900        2.4073500
       60000.000        62.235200        2.4040900
       60200.000        62.248200        2.3913300
       60400.000        62.260900        2.3785800
       60600.000        62.273300        2.3658200
       60800.000        62.285300        2.3530600
       61100.000        62.303000        2.3345400
       61300.000        62.314400        2.3221900
       61500.000        62.325500        2.3098400
       61700.000        62.336400        2.2978500
       61900.000        62.347100        2.2858600
       62100.000        62.357600        2.2738700
       62300.000        62.367800        2.2618800
       62600.000        62.382700        2.2443900
       62800.000        62.392400        2.2327400
       63000.000        62.401800        2.2210800
       63300.000        62.415600        2.2042000
       63500.000        62.424600        2.1929500
       63800.000        62.437600        2.1760700
       64000.000        62.446100        2.1648200
       64300.000        62.458600        2.1486200
       64500.000        62.466700        2.1378200
       64800.000        62.478700        2.1216200
       65000.000        62.486500        2.1108200
       65300.000        62.498000        2.0948700
       65500.000        62.505300        2.0842400
       65700.000        62.512500        2.0736100
       65900.000        62.519500        2.0629800
       66200.000        62.529700        2.0476100
       66400.000        62.536300        2.0373700
       66600.000        62.542800        2.0271200
       66830.000        62.550100        2.0153400
       66960.000        62.554200        2.0088800
       67100.000        62.558500        2.0019200
       67400.000        62.567500        1.9870000
       67700.000        62.576300        1.9724300
       68000.000        62.584800        1.9578500
       68500.000        62.598500        1.9341100
       69000.000        62.611400        1.9103600
       69500.000        62.623800        1.8875200
       70000.000        62.635600        1.8646700
       70500.000        62.646800        1.8424200
       71000.000        62.657400        1.8201700
       71500.000        62.667500        1.7987500
       72000.000        62.677000        1.7773300
       72800.000        62.691400        1.7444900
       73500.000        62.703200        1.7157600
       74200.000        62.713900        1.6883300
       74960.000        62.724700        1.6585400
       75200.000        62.727900        1.6495100
       75500.000        62.731700        1.6382200
       76000.000        62.738000        1.6197600
       76600.000        62.745100        1.5982400
       77110.000        62.750800        1.5799400
       77900.000        62.759100        1.5528600
       78600.000        62.765800        1.5288700
       79300.000        62.772100        1.5057700
       79700.000        62.775500        1.4928800
       80000.000        62.777900        1.4832200
       80800.000        62.784100        1.4585400
       81500.000        62.789100        1.4369500
       82300.000        62.794500        1.4134700
       83000.000        62.798800        1.3929300
       84000.000        62.804600        1.3647500
       85000.000        62.810000        1.3374800
       86500.000        62.817000        1.2975800
       88000.000        62.822700        1.2595200
       89000.000        62.826000        1.2351200
       90000.000        62.828900        1.2114600
       91500.000        62.832600        1.1768500
       93000.000        62.835300        1.1437600
       94000.000        62.836700        1.1225100
       95000.000        62.837800        1.1018700
       96500.000        62.839000        1.0720300
       98000.000        62.839700        1.0434400
       99000.000        62.839900        1.0250400
       99500.000        62.839900        1.0160300
       100000.00        62.839900        1.0071400
