;  Atomic scattering factors for F.
;   
;  Concatenation of data from CXRO <http://www-cxro.lbl.gov>
;  and LLNL <http://www-phys.llnl.gov/V_Div/scattering/asf.html>
;  
;  E (eV) f1 f2
;---------------
       10.000000       -9999.0000      0.051647300
       10.161700       -9999.0000      0.056479600
       10.326100       -9999.0000      0.061763900
       10.493100       -9999.0000      0.067542700
       10.662800       -9999.0000      0.073862300
       10.835300       -9999.0000      0.080772900
       11.010600       -9999.0000      0.088330300
       11.188600       -9999.0000      0.096594700
       11.369600       -9999.0000       0.10831300
       11.553500       -9999.0000       0.12462100
       11.740400       -9999.0000       0.14767500
       11.930300       -9999.0000       0.18293400
       12.123200       -9999.0000       0.28681900
       12.319300       -9999.0000       0.42732400
       12.518600       -9999.0000       0.52625800
       12.721000       -9999.0000       0.59722900
       12.926800       -9999.0000       0.67627700
       13.135900       -9999.0000       0.75800900
       13.348300       -9999.0000       0.84961800
       13.564200       -9999.0000       0.92183000
       13.783600       -9999.0000       0.98715700
       14.006600       -9999.0000        1.0571100
       14.233100       -9999.0000        1.1320300
       14.463300       -9999.0000        1.2104200
       14.697300       -9999.0000        1.2940800
       14.935000       -9999.0000        1.3835200
       15.176500       -9999.0000        1.4715900
       15.422000       -9999.0000        1.5508800
       15.671400       -9999.0000        1.6344400
       15.924900       -9999.0000        1.7225000
       16.182500       -9999.0000        1.8056800
       16.444200       -9999.0000        1.8901200
       16.710200       -9999.0000        1.9785200
       16.980500       -9999.0000        2.0710300
       17.255100       -9999.0000        2.1596300
       17.534200       -9999.0000        2.2520200
       17.817800       -9999.0000        2.3483600
       18.106000       -9999.0000        2.4488300
       18.398900       -9999.0000        2.5490000
       18.696400       -9999.0000        2.6422200
       18.998800       -9999.0000        2.7388600
       19.306100       -9999.0000        2.8390300
       19.618400       -9999.0000        2.9428700
       19.935700       -9999.0000        3.0087800
       20.258200       -9999.0000        3.0730400
       20.585800       -9999.0000        3.1386800
       20.918800       -9999.0000        3.2057200
       21.257100       -9999.0000        3.2741900
       21.600900       -9999.0000        3.3458900
       21.950300       -9999.0000        3.4201800
       22.305300       -9999.0000        3.4961100
       22.666100       -9999.0000        3.5737300
       23.032700       -9999.0000        3.6534200
       23.405300       -9999.0000        3.7375200
       23.783800       -9999.0000        3.8235500
       24.168500       -9999.0000        3.9115700
       24.559400       -9999.0000        4.0016300
       24.956600       -9999.0000        4.0938600
       25.360300       -9999.0000        4.1882100
       25.770500       -9999.0000        4.2847400
       26.187300       -9999.0000        4.3797500
       26.610900       -9999.0000        4.4599400
       27.041300       -9999.0000        4.5416000
       27.478600       -9999.0000        4.6247700
       27.923100       -9999.0000        4.7094500
       28.374700       -9999.0000        4.7819300
       28.833700       -9999.0000        4.8473000
       29.300000       0.22699600        4.9135600
       29.773900       0.38497700        4.9554700
       30.255500       0.51701200        4.9608800
       30.744900       0.63293000        4.9663000
       31.242100       0.74170200        4.9716900
       31.747500       0.84304100        4.9696100
       32.260900       0.93516100        4.9675200
       32.782700        1.0186900        4.9654400
       33.313000        1.0908700        4.9687700
       33.851800        1.1656400        4.9802800
       34.399300        1.2409000        4.9918100
       34.955700        1.3143200        5.0033600
       35.521100        1.3840900        5.0149500
       36.095600        1.4451700        5.0348700
       36.679400        1.5157100        5.0640200
       37.272700        1.5915800        5.0933300
       37.875500        1.6717100        5.1228200
       38.488200        1.7584600        5.1524700
       39.110700        1.8556500        5.1714800
       39.743200        1.9434300        5.1820800
       40.386100        2.0268500        5.1927000
       41.039300        2.1085800        5.2033500
       41.703100        2.1890700        5.2140200
       42.377600        2.2685200        5.2247100
       43.063000        2.3467400        5.2354200
       43.759500        2.4240300        5.2481300
       44.467300        2.5025400        5.2616400
       45.186500        2.5817300        5.2751900
       45.917400        2.6614800        5.2887900
       46.660000        2.7418100        5.3024100
       47.414700        2.8228000        5.3160700
       48.181600        2.9045000        5.3297600
       48.960900        2.9870300        5.3434900
       49.752800        3.0704800        5.3572500
       50.557600        3.1549700        5.3710600
       51.375300        3.2406200        5.3848900
       52.206200        3.3275600        5.3987600
       53.050600        3.4158800        5.4126700
       53.908700        3.5057200        5.4266100
       54.780600        3.5939400        5.4405900
       55.666700        3.6697500        5.4787700
       56.567000        3.8089400        5.5084400
       57.482000        3.9312900        5.5040800
       58.411700        4.0477100        5.4997800
       59.356400        4.1693200        5.4903900
       60.316500        4.2850700        5.4724200
       61.292100        4.4025100        5.4503800
       62.283400        4.5117500        5.4187000
       63.290800        4.6144500        5.3872200
       64.314500        4.7139600        5.3559600
       65.354700        4.8114800        5.3248500
       66.411800        4.9078000        5.2938700
       67.485900        5.0039000        5.2631400
       68.577500        5.1021000        5.2326600
       69.686700        5.2043300        5.1958300
       70.813800        5.3036600        5.1552300
       71.959100        5.4002600        5.1064600
       73.123000        5.4903900        5.0565000
       74.305700        5.5764300        5.0070000
       75.507600        5.6601100        4.9579000
       76.728900        5.7423800        4.9092800
       77.969900        5.8249000        4.8611200
       79.231000        5.9064000        4.8089300
       80.512500        5.9869600        4.7571800
       81.814700        6.0683200        4.7000000
       83.138000        6.1431700        4.6399500
       84.482700        6.2137500        4.5808800
       85.849100        6.2821100        4.5225600
       87.237700        6.3491600        4.4650100
       88.648700        6.4163100        4.4066200
       90.082500        6.4810200        4.3471400
       91.539500        6.5463800        4.2861500
       93.020100        6.6067100        4.2220800
       94.524600        6.6637400        4.1589400
       96.053500        6.7185400        4.0967000
       97.607100        6.7719700        4.0353800
       99.185800        6.8255200        3.9749700
       100.79000        6.8811400        3.9104700
       102.42000        6.9294300        3.8421000
       104.07700        6.9736600        3.7755300
       105.76000        7.0151100        3.7101100
       107.47100        7.0541800        3.6458300
       109.20900        7.0911800        3.5826800
       110.97500        7.1263600        3.5206000
       112.77000        7.1598300        3.4595900
       114.59400        7.1918200        3.3996600
       116.44800        7.2224600        3.3407600
       118.33100        7.2518600        3.2828700
       120.24500        7.2801700        3.2260100
       122.19000        7.3075500        3.1701100
       124.16600        7.3341200        3.1151700
       126.17500        7.3601500        3.0611900
       128.21500        7.3861000        3.0081600
       130.28900        7.4138000        2.9552100
       132.39700        7.4389400        2.8979800
       134.53800        7.4611300        2.8418800
       136.71400        7.4812300        2.7868600
       138.92500        7.4998100        2.7329000
       141.17200        7.5171000        2.6799900
       143.45600        7.5332500        2.6281000
       145.77600        7.5483800        2.5772200
       148.13400        7.5626000        2.5273400
       150.53000        7.5760600        2.4784400
       152.96400        7.5888300        2.4304700
       155.43900        7.6010900        2.3834000
       157.95300        7.6131700        2.3372200
       160.50700        7.6246700        2.2907700
       163.10300        7.6356200        2.2446700
       165.74200        7.6450000        2.1987700
       168.42200        7.6532900        2.1538700
       171.14600        7.6607600        2.1098700
       173.91500        7.6675000        2.0667600
       176.72700        7.6735800        2.0245000
       179.58600        7.6790800        1.9831100
       182.49100        7.6840600        1.9425800
       185.44200        7.6887000        1.9029100
       188.44200        7.6932200        1.8638400
       191.48900        7.6975600        1.8251500
       194.58700        7.7009700        1.7863900
       197.73400        7.7035600        1.7484300
       200.93200        7.7055200        1.7112600
       204.18200        7.7070100        1.6748700
       207.48500        7.7081700        1.6391700
       210.84000        7.7090900        1.6041200
       214.25100        7.7094100        1.5690300
       217.71600        7.7089900        1.5346800
       221.23700        7.7079700        1.5010900
       224.81600        7.7064900        1.4682500
       228.45200        7.7046300        1.4361300
       232.14700        7.7024200        1.4047100
       235.90200        7.7000000        1.3739700
       239.71700        7.6974700        1.3436300
       243.59500        7.6944200        1.3136100
       247.53500        7.6908500        1.2840600
       251.53800        7.6867900        1.2551300
       255.60700        7.6822900        1.2268300
       259.74100        7.6774400        1.1992300
       263.94200        7.6723200        1.1722300
       268.21100        7.6670100        1.1458300
       272.54900        7.6614200        1.1197700
       276.95700        7.6554400        1.0942300
       281.43700        7.6491400        1.0692400
       285.98900        7.6425800        1.0448300
       290.61500        7.6358400        1.0209700
       295.31500        7.6291300       0.99765200
       300.09200        7.6228900       0.97442600
       304.94500        7.6156500       0.95023000
       309.87800        7.6074500       0.92663500
       314.89000        7.5985200       0.90362400
       319.98300        7.5890400       0.88118500
       325.15800        7.5790400       0.85930400
       330.41800        7.5685800       0.83796600
       335.76200        7.5576600       0.81715800
       341.19200        7.5463100       0.79686600
       346.71100        7.5345400       0.77708000
       352.31900        7.5223600       0.75778300
       358.01700        7.5097700       0.73896600
       363.80800        7.4968000       0.72061600
       369.69200        7.4834600       0.70272100
       375.67200        7.4698100       0.68527200
       381.74800        7.4559700       0.66825500
       387.92200        7.4425000       0.65166100
       394.19700        7.4288500       0.63320300
       400.57300        7.4132900       0.61431900
       407.05200        7.3959600       0.59599700
       413.63500        7.3774400       0.57822200
       420.32600        7.3577800       0.56097700
       427.12400        7.3370100       0.54424600
       434.03200        7.3151000       0.52801400
       441.05200        7.2920200       0.51226700
       448.18600        7.2676900       0.49698900
       455.43500        7.2418900       0.48220200
       462.80200        7.2149000       0.46829600
       470.28700        7.1866500       0.45479100
       477.89400        7.1569700       0.44167600
       485.62300        7.1256600       0.42893800
       493.47800        7.0925700       0.41656700
       501.45900        7.0574800       0.40455400
       509.57000        7.0201800       0.39288800
       517.81200        6.9803900       0.38155700
       526.18700        6.9378300       0.37055300
       534.69800        6.8921100       0.35986700
       543.34600        6.8428300       0.34948900
       552.13400        6.7895300       0.33941000
       561.06500        6.7314100       0.32926900
       570.13900        6.6674700       0.31934000
       579.36100        6.5967200       0.30971000
       588.73200        6.5178900       0.30037100
       598.25400        6.4292700       0.29131300
       607.93000        6.3285100       0.28252900
       617.76300        6.2129100       0.27400900
       627.75500        6.0769000       0.26441900
       637.90800        5.9124800       0.25483600
       648.22600        5.7082400       0.24559900
       658.71100        5.4433800       0.23669800
       669.36500        5.0749300       0.22811900
       680.19100        4.4904300       0.21985100
       691.19300        3.1566600       0.21188200
       696.60000       -1.9477200       0.20811700
       696.80000       -1.9431800        4.2589500
       702.37200        3.3234900        4.2127100
       713.73300        4.8203700        4.1210900
       725.27700        5.5453400        4.0314500
       737.00800        6.0341200        3.9437700
       748.92800        6.4046200        3.8580000
       761.04200        6.7030900        3.7740900
       773.35100        6.9527200        3.6920100
       785.85900        7.1668300        3.6117000
       798.57000        7.3538500        3.5331500
       811.48600        7.5194700        3.4563100
       824.61100        7.6677400        3.3811400
       837.94900        7.8016600        3.3076000
       851.50200        7.9235500        3.2356700
       865.27400        8.0352800        3.1652900
       879.26900        8.1384400        3.0964500
       893.49100        8.2347700        3.0291000
       907.94300        8.3263800        2.9606700
       922.62800        8.4097200        2.8903000
       937.55100        8.4848500        2.8215900
       952.71500        8.5540900        2.7545300
       968.12400        8.6181300        2.6890500
       983.78300        8.6778300        2.6252500
       999.69500        8.7339900        2.5621600
       1015.8600        8.7858600        2.4996100
       1032.2900        8.8334200        2.4382900
       1048.9900        8.8774100        2.3784500
       1065.9600        8.9181700        2.3200600
       1083.2000        8.9560700        2.2631500
       1100.7200        8.9914300        2.2075400
       1118.5200        9.0243300        2.1531500
       1136.6100        9.0549300        2.1000700
       1155.0000        9.0834800        2.0482800
       1173.6800        9.1102500        1.9977600
       1192.6600        9.1354100        1.9483300
       1211.9500        9.1592400        1.8996400
       1231.5500        9.1811500        1.8515000
       1251.4700        9.2011500        1.8046200
       1271.7200        9.2197100        1.7589200
       1292.2900        9.2374500        1.7143600
       1313.1900        9.2538300        1.6699500
       1334.4300        9.2685700        1.6265200
       1356.0100        9.2819600        1.5840700
       1377.9400        9.2941600        1.5427200
       1400.2300        9.3053700        1.5023200
       1422.8800        9.3155300        1.4627900
       1445.8900        9.3247100        1.4242300
       1469.2800        9.3330700        1.3866800
       1493.0400        9.3410100        1.3501400
       1517.1900        9.3481200        1.3136100
       1541.7300        9.3541500        1.2778900
       1566.6700        9.3591900        1.2430600
       1592.0100        9.3634300        1.2091400
       1617.7600        9.3669100        1.1761500
       1643.9200        9.3698100        1.1441200
       1670.5100        9.3722000        1.1129300
       1697.5300        9.3740800        1.0825700
       1724.9900        9.3756700        1.0530200
       1752.8900        9.3768100        1.0239600
       1781.2400        9.3773800       0.99558600
       1810.0500        9.3774500       0.96792700
       1839.3200        9.3770700       0.94104800
       1869.0700        9.3763200       0.91490600
       1899.3000        9.3752300       0.88946600
       1930.0200        9.3738200       0.86474000
       1961.2400        9.3721300       0.84070300
       1992.9600        9.3700900       0.81733500
       2025.2000        9.3681700       0.79491600
       2057.9500        9.3661200       0.77263200
       2091.2400        9.3637100       0.75092800
       2125.0600        9.3610700       0.72978900
       2159.4300        9.3582300       0.70921200
       2194.3600        9.3552300       0.68918100
       2229.8500        9.3520500       0.66967700
       2265.9200        9.3487400       0.65069900
       2302.5700        9.3453000       0.63221800
       2339.8100        9.3417400       0.61423700
       2377.6600        9.3380700       0.59672900
       2416.1100        9.3343000       0.57969600
       2455.1900        9.3304500       0.56312000
       2494.9000        9.3265200       0.54697900
       2535.2600        9.3225200       0.53128000
       2576.2600        9.3184600       0.51600400
       2617.9300        9.3143500       0.50114200
       2660.2700        9.3101900       0.48667200
       2703.3000        9.3059900       0.47260000
       2747.0300        9.3017700       0.45890700
       2791.4600        9.2975100       0.44558500
       2836.6100        9.2932400       0.43261700
       2882.4900        9.2889400       0.42000900
       2929.1100        9.2846400       0.40774400
       2976.4800        9.2803300       0.39580800
       3024.6300        9.2760200       0.38419000
       3073.5500        9.2717100       0.37290500
       3123.2600        9.2674100       0.36191600
       3173.7800        9.2631100       0.35122000
       3225.1100        9.2588200       0.34082600
       3277.2700        9.2545500       0.33071600
       3330.2800        9.2503000       0.32086900
       3384.1500        9.2460600       0.31130800
       3438.8800        9.2418500       0.30200300
       3494.5000        9.2376700       0.29294800
       3551.0200        9.2335100       0.28413600
       3608.4600        9.2293700       0.27556900
       3666.8200        9.2252600       0.26724200
       3726.1300        9.2211900       0.25914300
       3786.4000        9.2171500       0.25125000
       3847.6400        9.2131300       0.24358700
       3909.8700        9.2091500       0.23612500
       3973.1100        9.2051900       0.22887200
       4037.3800        9.2012700       0.22182800
       4102.6800        9.1973800       0.21498000
       4169.0300        9.1935200       0.20832900
       4236.4600        9.1896900       0.20187100
       4304.9800        9.1859000       0.19562000
       4374.6200        9.1821700       0.18953100
       4445.3700        9.1784600       0.18363000
       4517.2700        9.1748100       0.17790100
       4590.3300        9.1712000       0.17234400
       4664.5800        9.1676400       0.16695000
       4740.0300        9.1641200       0.16171700
       4816.6900        9.1606500       0.15663900
       4894.6000        9.1572300       0.15171500
       4973.7700        9.1538600       0.14693400
       5054.2100        9.1505400       0.14230000
       5135.9600        9.1472600       0.13780300
       5219.0300        9.1440400       0.13344300
       5303.4400        9.1408700       0.12921200
       5389.2200        9.1377400       0.12511000
       5476.3900        9.1346700       0.12113300
       5564.9700        9.1316500       0.11727600
       5654.9800        9.1286700       0.11353600
       5746.4400        9.1257500       0.10990800
       5839.3900        9.1228700       0.10639400
       5933.8300        9.1200500       0.10298500
       6029.8100        9.1172700      0.099680900
       6127.3300        9.1145400      0.096477200
       6226.4400        9.1118700      0.093371100
       6327.1500        9.1092300      0.090361500
       6429.4800        9.1066500      0.087444600
       6533.4800        9.1041100      0.084619200
       6639.1500        9.1016200      0.081879900
       6746.5400        9.0991800      0.079225000
       6855.6500        9.0967900      0.076652900
       6966.5400        9.0944400      0.074158600
       7079.2200        9.0921300      0.071745100
       7193.7200        9.0898700      0.069404500
       7310.0700        9.0876500      0.067138800
       7428.3100        9.0854800      0.064942100
       7548.4500        9.0833500      0.062815400
       7670.5400        9.0812600      0.060755000
       7794.6100        9.0792200      0.058759400
       7920.6800        9.0772200      0.056825900
       8048.7900        9.0752500      0.054952800
       8178.9800        9.0733300      0.053139400
       8311.2600        9.0714500      0.051385100
       8445.6900        9.0696100      0.049683800
       8582.2900        9.0678000      0.048037000
       8721.1100        9.0660300      0.046443000
       8862.1600        9.0643000      0.044899100
       9005.5000        9.0626100      0.043406900
       9151.1600        9.0609600      0.041958100
       9299.1700        9.0593300      0.040558200
       9449.5800        9.0577500      0.039202600
       9602.4200        9.0562000      0.037890300
       9757.7300        9.0546800      0.036620300
       9915.5500        9.0531900      0.035391500
       10075.900        9.0517400      0.034201800
       10238.900        9.0503200      0.033050500
       10404.500        9.0489400      0.031936500
       10572.800        9.0475800      0.030858400
       10743.800        9.0462500      0.029815300
       10917.600        9.0449600      0.028806000
       11094.200        9.0436900      0.027829600
       11273.600        9.0424500      0.026884900
       11455.900        9.0412400      0.025971100
       11641.200        9.0400600      0.025087200
       11829.500        9.0389000      0.024232100
       12020.800        9.0377700      0.023405100
       12215.300        9.0366700      0.022605200
       12412.800        9.0356000      0.021831700
       12613.600        9.0345400      0.021083600
       12817.600        9.0335200      0.020360200
       13025.000        9.0325100      0.019660800
       13235.600        9.0315300      0.018984500
       13449.700        9.0305800      0.018330700
       13667.200        9.0296500      0.017698500
       13888.300        9.0287300      0.017087500
       14112.900        9.0278500      0.016496800
       14341.200        9.0269800      0.015925900
       14573.100        9.0261300      0.015374100
       14808.900        9.0253000      0.014840800
       15048.400        9.0245000      0.014325400
       15291.800        9.0237100      0.013827400
       15539.100        9.0229400      0.013346200
       15790.400        9.0221900      0.012881300
       16045.800        9.0214600      0.012432100
       16305.400        9.0207500      0.011998200
       16569.100        9.0200500      0.011579100
       16837.100        9.0193700      0.011174200
       17109.400        9.0187100      0.010783200
       17386.100        9.0180700      0.010405600
       17667.400        9.0174400      0.010040900
       17953.100        9.0168300     0.0096887500
       18243.500        9.0162300     0.0093487600
       18538.600        9.0156500     0.0090205200
       18838.400        9.0150800     0.0087036500
       19143.100        9.0145300     0.0083977900
       19452.700        9.0139900     0.0081025700
       19767.400        9.0134600     0.0078176500
       20087.100        9.0129500     0.0075425700
       20412.000        9.0124500     0.0072773500
       20742.100        9.0119600     0.0070215600
       21077.600        9.0114900     0.0067748400
       21418.500        9.0110300     0.0065368700
       21765.000        9.0105800     0.0063073300
       22117.000        9.0101400     0.0060859200
       22474.700        9.0097200     0.0058723500
       22838.200        9.0093000     0.0056663100
       23207.600        9.0089000     0.0054675600
       23583.000        9.0085100     0.0052758200
       23964.400        9.0081200     0.0050908400
       24352.000        9.0077500     0.0049123800
       24745.900        9.0073900     0.0047402100
       25146.200        9.0070400     0.0045741000
       25552.900        9.0066900     0.0044138300
       25966.200        9.0063600     0.0042591900
       26386.100        9.0060400     0.0041099900
       26812.900        9.0057200     0.0039660200
       27246.600        9.0054100     0.0038271000
       27687.300        9.0051100     0.0036930600
       28135.100        9.0048200     0.0035637100
       28590.200        9.0045400     0.0034388900
       29052.600        9.0042700     0.0033184500
       29522.500        9.0040100     0.0032022100
       30000.000        9.0037100     0.0030900400
       30400.000        9.0034800     0.0030623100
       30800.000        9.0032900     0.0029737000
       31200.000        9.0031000     0.0028887400
       31500.000        9.0029500     0.0028273100
       31900.000        9.0027600     0.0027483000
       32300.000        9.0025700     0.0026724400
       32600.000        9.0024300     0.0026175200
       33000.000        9.0022400     0.0025467900
       33400.000        9.0021000     0.0024786200
       33800.000        9.0019500     0.0024130500
       34100.000        9.0018400     0.0023655100
       34500.000        9.0016900     0.0023042000
       34900.000        9.0015400     0.0022451500
       35300.000        9.0013900     0.0021881200
       35700.000        9.0012500     0.0021331000
       36030.000        9.0011200     0.0020892000
       36500.000        9.0009800     0.0020289000
       37000.000        9.0008300     0.0019674600
       37500.000        9.0006800     0.0019086700
       38000.000        9.0005200     0.0018523900
       38500.000        9.0003900     0.0017984600
       39000.000        9.0002600     0.0017467800
       39500.000        9.0001300     0.0016972000
       40000.000        9.0000000     0.0016496400
       40800.000        8.9998300     0.0015771600
       41500.000        8.9996900     0.0015174500
       42300.000        8.9995300     0.0014531100
       43000.000        8.9993900     0.0014000000
       43800.000        8.9992200     0.0013426500
       44500.000        8.9990800     0.0012952100
       45300.000        8.9989200     0.0012438500
       46000.000        8.9987800     0.0012012200
       46500.000        8.9987000     0.0011720400
       47000.000        8.9986300     0.0011438800
       48000.000        8.9984800     0.0010903900
       49000.000        8.9983300     0.0010404400
       49500.000        8.9982600     0.0010166900
       50000.000        8.9981800    0.00099371700
       51000.000        8.9980700    0.00094983800
       52000.000        8.9979600    0.00090869300
       53000.000        8.9978500    0.00087006300
       54000.000        8.9977400    0.00083375300
       55000.000        8.9976300    0.00079958400
       56000.000        8.9975300    0.00076736300
       56800.000        8.9974400    0.00074291400
       57530.000        8.9973600    0.00072157000
       58000.000        8.9973200    0.00070829200
       58500.000        8.9972800    0.00069454800
       59540.000        8.9971900    0.00066716400
       59800.000        8.9971700    0.00066056100
       60000.000        8.9971500    0.00065554600
       61500.000        8.9970500    0.00061955000
       62300.000        8.9969900    0.00060150400
       63000.000        8.9969400    0.00058632800
       64000.000        8.9968700    0.00056558500
       65000.000        8.9968100    0.00054588100
       65900.000        8.9967400    0.00052898000
       66830.000        8.9966800    0.00051229400
       67400.000        8.9966500    0.00050243900
       68000.000        8.9966200    0.00049235800
       70000.000        8.9965000    0.00046077400
       71000.000        8.9964600    0.00044606000
       72000.000        8.9964100    0.00043201200
       73500.000        8.9963400    0.00041210400
       74960.000        8.9962700    0.00039396900
       76000.000        8.9962300    0.00038174300
       77110.000        8.9961800    0.00036928600
       78600.000        8.9961300    0.00035346400
       80000.000        8.9960800    0.00033947100
       83000.000        8.9959900    0.00031205800
       85000.000        8.9959300    0.00029551800
       88000.000        8.9958300    0.00027298100
       90000.000        8.9957700    0.00025930400
       93000.000        8.9957100    0.00024058400
       95000.000        8.9956700    0.00022916600
       98000.000        8.9956000    0.00021346100
       99000.000        8.9955800    0.00020857000
       100000.00        8.9955600    0.00020383800
