;  Atomic scattering factors for Ge.
;   
;  Concatenation of data from CXRO <http://www-cxro.lbl.gov>
;  and LLNL <http://www-phys.llnl.gov/V_Div/scattering/asf.html>
;  
;  E (eV) f1 f2
;---------------
       10.000000       -9999.0000        3.0118300
       10.161700       -9999.0000        3.0554800
       10.326100       -9999.0000        3.0997600
       10.493100       -9999.0000        3.1446800
       10.662800       -9999.0000        3.1902500
       10.835300       -9999.0000        3.2182500
       11.010600       -9999.0000        3.2075500
       11.188600       -9999.0000        3.1968900
       11.369600       -9999.0000        3.1862600
       11.553500       -9999.0000        3.1756800
       11.740400       -9999.0000        3.1668700
       11.930300       -9999.0000        3.1581600
       12.123200       -9999.0000        3.1494700
       12.319300       -9999.0000        3.1408000
       12.518600       -9999.0000        3.1321600
       12.721000       -9999.0000        3.1142100
       12.926800       -9999.0000        3.0168300
       13.135900       -9999.0000        2.9225000
       13.348300       -9999.0000        2.8311200
       13.564200       -9999.0000        2.7426000
       13.783600       -9999.0000        2.6568500
       14.006600       -9999.0000        2.5737800
       14.233100       -9999.0000        2.4933000
       14.463300       -9999.0000        2.4153400
       14.697300       -9999.0000        2.3398200
       14.935000       -9999.0000        2.2666600
       15.176500       -9999.0000        2.1869800
       15.422000       -9999.0000        2.1069700
       15.671400       -9999.0000        2.0298700
       15.924900       -9999.0000        1.9556000
       16.182500       -9999.0000        1.8840500
       16.444200       -9999.0000        1.8151100
       16.710200       -9999.0000        1.7487000
       16.980500       -9999.0000        1.6847200
       17.255100       -9999.0000        1.6230800
       17.534200       -9999.0000        1.5636900
       17.817800       -9999.0000        1.5064800
       18.106000       -9999.0000        1.4513600
       18.398900       -9999.0000        1.3982500
       18.696400       -9999.0000        1.3440600
       18.998800       -9999.0000        1.2858600
       19.306100       -9999.0000        1.2301800
       19.618400       -9999.0000        1.1769000
       19.935700       -9999.0000        1.1259400
       20.258200       -9999.0000        1.0771800
       20.585800       -9999.0000        1.0305400
       20.918800       -9999.0000       0.98273900
       21.257100       -9999.0000       0.92306200
       21.600900       -9999.0000       0.86700900
       21.950300       -9999.0000       0.81435900
       22.305300       -9999.0000       0.76490600
       22.666100       -9999.0000       0.71845800
       23.032700       -9999.0000       0.67482900
       23.405300       -9999.0000       0.63385000
       23.783800       -9999.0000       0.59159400
       24.168500       -9999.0000       0.54842700
       24.559400       -9999.0000       0.50841000
       24.956600       -9999.0000       0.47396400
       25.360300       -9999.0000       0.46103000
       25.770500       -9999.0000       0.44845000
       26.187300       -9999.0000       0.44458900
       26.610900       -9999.0000       0.45026400
       27.041300       -9999.0000       0.45601100
       27.478600       -9999.0000       0.46183200
       27.923100       -9999.0000       0.48368200
       28.374700       -9999.0000       0.53889500
       28.833700       -9999.0000       0.69867600
       29.300000       0.44012400       0.90582900
       29.773900       0.27223300        1.1744000
       30.255500       0.16295800        1.5226200
       30.744900       0.21716300        1.9740600
       31.242100       0.45376900        2.2214100
       31.747500       0.68204600        2.3841600
       32.260900       0.88226400        2.5049200
       32.782700        1.1372000        2.5162100
       33.313000        1.2815000        2.4521900
       33.851800        1.3705100        2.3908900
       34.399300        1.4286100        2.3381300
       34.955700        1.4645900        2.2865400
       35.521100        1.4789100        2.2370600
       36.095600        1.4782700        2.1966700
       36.679400        1.4648300        2.1570100
       37.272700        1.4315300        2.1180600
       37.875500        1.3647700        2.0963800
       38.488200        1.3095400        2.1072300
       39.110700        1.2606100        2.1181400
       39.743200        1.2072700        2.1291000
       40.386100        1.1421700        2.1432400
       41.039300        1.0760300        2.1735600
       41.703100        1.0092500        2.2043100
       42.377600       0.93039400        2.2354900
       43.063000       0.82707700        2.2934400
       43.759500       0.74599000        2.3746300
       44.467300       0.67483400        2.4586900
       45.186500       0.60486700        2.5457300
       45.917400       0.52900200        2.6358500
       46.660000       0.45262600        2.7574500
       47.414700       0.39843300        2.8917900
       48.181600       0.36736800        3.0326900
       48.960900       0.36893200        3.1511800
       49.752800       0.35178300        3.2509700
       50.557600       0.32649700        3.3539300
       51.375300       0.29999700        3.4601400
       52.206200       0.27387700        3.5689300
       53.050600       0.24649900        3.6797500
       53.908700       0.21820900        3.7940000
       54.780600       0.18872900        3.9118000
       55.666700       0.15559900        4.0332600
       56.567000       0.12414800        4.1697600
       57.482000      0.098601400        4.3109200
       58.411700      0.077227700        4.4568700
       59.356400      0.059723900        4.6077500
       60.316500      0.046109300        4.7637400
       61.292100      0.036166200        4.9259400
       62.283400      0.032630000        5.0947100
       63.290800      0.035931600        5.2692500
       64.314500      0.047017100        5.4497800
       65.354700      0.067463900        5.6364900
       66.411800      0.099814400        5.8296000
       67.485900       0.14837700        6.0293200
       68.577500       0.23425000        6.2433900
       69.686700       0.34810700        6.3832100
       70.813800       0.43082100        6.5099200
       71.959100       0.49706700        6.6391400
       73.123000       0.55826100        6.7709300
       74.305700       0.61658000        6.9053400
       75.507600       0.67349100        7.0424100
       76.728900       0.72997700        7.1822000
       77.969900       0.78684500        7.3247700
       79.231000       0.84472500        7.4701700
       80.512500       0.90433800        7.6184500
       81.814700       0.96654000        7.7696800
       83.138000        1.0336200        7.9239100
       84.482700        1.1033700        8.0734300
       85.849100        1.1722000        8.2249000
       87.237700        1.2415400        8.3792200
       88.648700        1.3126600        8.5364300
       90.082500        1.3860500        8.6965900
       91.539500        1.4621900        8.8597600
       93.020100        1.5415400        9.0259900
       94.524600        1.6246900        9.1953300
       96.053500        1.7123000        9.3678600
       97.607100        1.8060500        9.5436200
       99.185800        1.9122000        9.7182800
       100.79000        2.0165300        9.8854100
       102.42000        2.1198200        10.055400
       104.07700        2.2252900        10.228300
       105.76000        2.3337100        10.404200
       107.47100        2.4457800        10.583100
       109.20900        2.5619500        10.765100
       110.97500        2.6828400        10.950300
       112.77000        2.8089300        11.138600
       114.59400        2.9409200        11.330100
       116.44800        3.0794600        11.525000
       118.33100        3.2255400        11.723200
       120.24500        3.3803600        11.924800
       122.19000        3.5459500        12.129800
       124.16600        3.7262600        12.338400
       126.17500        3.9360500        12.544100
       128.21500        4.1432200        12.710800
       130.28900        4.3429700        12.879800
       132.39700        4.5413400        13.051000
       134.53800        4.7428400        13.224400
       136.71400        4.9491900        13.400200
       138.92500        5.1620300        13.578400
       141.17200        5.3829400        13.758900
       143.45600        5.6139400        13.941700
       145.77600        5.8576300        14.127100
       148.13400        6.1186500        14.314900
       150.53000        6.4087200        14.505200
       152.96400        6.7591400        14.655100
       155.43900        7.0676600        14.740300
       157.95300        7.3536000        14.826000
       160.50700        7.6300300        14.912300
       163.10300        7.9017000        14.999000
       165.74200        8.1713000        15.086200
       168.42200        8.4406500        15.173900
       171.14600        8.7112100        15.262100
       173.91500        8.9843200        15.350900
       176.72700        9.2612100        15.440100
       179.58600        9.5433100        15.529900
       182.49100        9.8322500        15.620200
       185.44200        10.130200        15.711000
       188.44200        10.440200        15.802400
       191.48900        10.767700        15.894300
       194.58700        11.127000        15.986700
       197.73400        11.561200        16.028100
       200.93200        11.934700        15.977300
       204.18200        12.270400        15.926700
       207.48500        12.586600        15.876300
       210.84000        12.890000        15.826000
       214.25100        13.183800        15.775900
       217.71600        13.470400        15.725900
       221.23700        13.751300        15.676200
       224.81600        14.027800        15.626500
       228.45200        14.301000        15.577100
       232.14700        14.571800        15.527700
       235.90200        14.841100        15.478500
       239.71700        15.109900        15.429500
       243.59500        15.379100        15.380700
       247.53500        15.649800        15.332000
       251.53800        15.923600        15.283400
       255.60700        16.202400        15.235000
       259.74100        16.489000        15.186800
       263.94200        16.788700        15.138700
       268.21100        17.128400        15.090800
       272.54900        17.502500        14.966900
       276.95700        17.816800        14.785600
       281.43700        18.094400        14.606400
       285.98900        18.350400        14.429500
       290.61500        18.590500        14.254700
       295.31500        18.817900        14.082000
       300.09200        19.034400        13.911400
       304.94500        19.241700        13.742800
       309.87800        19.440900        13.576400
       314.89000        19.632800        13.411900
       319.98300        19.818200        13.249400
       325.15800        19.997700        13.088900
       330.41800        20.172100        12.930300
       335.76200        20.341700        12.773700
       341.19200        20.507300        12.618900
       346.71100        20.669400        12.466000
       352.31900        20.828700        12.315000
       358.01700        20.986200        12.165800
       363.80800        21.143900        12.018400
       369.69200        21.309900        11.864500
       375.67200        21.464200        11.698600
       381.74800        21.606600        11.535100
       387.92200        21.743400        11.373800
       394.19700        21.875700        11.214800
       400.57300        22.004400        11.058000
       407.05200        22.130500        10.903400
       413.63500        22.255100        10.751000
       420.32600        22.379500        10.600700
       427.12400        22.505500        10.452500
       434.03200        22.648600        10.306400
       441.05200        22.795300        10.125500
       448.18600        22.914600        9.9293800
       455.43500        23.016400        9.7370300
       462.80200        23.106700        9.5484000
       470.28700        23.188100        9.3634300
       477.89400        23.261900        9.1820500
       485.62300        23.329000        9.0041700
       493.47800        23.390200        8.8297300
       501.45900        23.446100        8.6586900
       509.57000        23.497100        8.4909500
       517.81200        23.543600        8.3264700
       526.18700        23.586000        8.1651700
       534.69800        23.624800        8.0070000
       543.34600        23.660400        7.8518800
       552.13400        23.693400        7.6997800
       561.06500        23.724800        7.5506100
       570.13900        23.757700        7.4043400
       579.36100        23.792600        7.2487800
       588.73200        23.816200        7.0875000
       598.25400        23.828400        6.9298000
       607.93000        23.834200        6.7756100
       617.76300        23.834200        6.6248600
       627.75500        23.829000        6.4774600
       637.90800        23.818900        6.3333400
       648.22600        23.804300        6.1924200
       658.71100        23.785400        6.0546400
       669.36500        23.762200        5.9199200
       680.19100        23.735000        5.7882100
       691.19300        23.703800        5.6594200
       702.37200        23.669000        5.5335000
       713.73300        23.630400        5.4103800
       725.27700        23.592200        5.2900000
       737.00800        23.548100        5.1638200
       748.92800        23.495000        5.0401100
       761.04200        23.435100        4.9193600
       773.35100        23.368900        4.8015000
       785.85900        23.296500        4.6864700
       798.57000        23.217700        4.5741900
       811.48600        23.132500        4.4646000
       824.61100        23.040600        4.3576400
       837.94900        22.941700        4.2532400
       851.50200        22.835500        4.1513400
       865.27400        22.721900        4.0518800
       879.26900        22.603800        3.9517500
       893.49100        22.471700        3.8472400
       907.94300        22.323100        3.7454900
       922.62800        22.159400        3.6464300
       937.55100        21.977700        3.5499900
       952.71500        21.772500        3.4604000
       968.12400        21.555600        3.3861000
       983.78300        21.324200        3.3134300
       999.69500        21.072000        3.2425800
       1015.8600        20.793700        3.1735200
       1032.2900        20.485300        3.1081300
       1048.9900        20.139700        3.0435700
       1065.9600        19.746200        2.9797900
       1083.2000        19.291500        2.9173500
       1100.7200        18.756200        2.8562300
       1118.5200        18.110900        2.7964200
       1136.6100        17.307100        2.7377600
       1155.0000        16.256100        2.6803400
       1173.6800        14.769400        2.6241300
       1192.6600        12.311300        2.5691000
       1211.9500        5.3614700        2.5152200
       1216.9000       -12.394900        2.5017200
       1217.1000       -12.390300        16.782400
       1231.5500        10.427700        16.648200
       1251.4700        14.527400        16.467500
       1271.7200        16.782500        16.290200
       1292.2900        18.376400        16.116700
       1313.1900        19.626700        15.945100
       1334.4300        20.665700        15.775400
       1356.0100        21.562800        15.607500
       1377.9400        22.359200        15.441200
       1400.2300        23.082100        15.276700
       1414.5000        23.510100        15.173600
       1414.7000        23.515900        15.172600
       1422.8800        23.752200        15.114300
       1445.8900        24.389100        14.953300
       1469.2800        25.016400        14.776800
       1493.0400        25.644700        14.576200
       1517.1900        26.215200        14.269900
       1541.7300        26.708700        13.955200
       1566.6700        27.141100        13.647400
       1592.0100        27.533000        13.346500
       1617.7600        27.891400        13.052300
       1643.9200        28.221400        12.764400
       1670.5100        28.527100        12.483000
       1697.5300        28.811600        12.207800
       1724.9900        29.084000        11.938700
       1752.8900        29.338400        11.663400
       1781.2400        29.571100        11.390400
       1810.0500        29.784500        11.120800
       1839.3200        29.980100        10.857500
       1869.0700        30.161100        10.600400
       1899.3000        30.328900        10.349400
       1930.0200        30.484900        10.104600
       1961.2400        30.630400        9.8654600
       1992.9600        30.764300        9.6317900
       2025.2000        30.896400        9.4090900
       2057.9500        31.021300        9.1806200
       2091.2400        31.133900        8.9564100
       2125.0600        31.237800        8.7368000
       2159.4300        31.333600        8.5218000
       2194.3600        31.422300        8.3113900
       2229.8500        31.504000        8.1048800
       2265.9200        31.579100        7.9030700
       2302.5700        31.648200        7.7055700
       2339.8100        31.711700        7.5123100
       2377.6600        31.769700        7.3231900
       2416.1100        31.822900        7.1383900
       2455.1900        31.871200        6.9573500
       2494.9000        31.914800        6.7805200
       2535.2600        31.954300        6.6077900
       2576.2600        31.989800        6.4389800
       2617.9300        32.021700        6.2740800
       2660.2700        32.050100        6.1129700
       2703.3000        32.075000        5.9552900
       2747.0300        32.096700        5.8015600
       2791.4600        32.115500        5.6512500
       2836.6100        32.131300        5.5047300
       2882.4900        32.144700        5.3617700
       2929.1100        32.155800        5.2220900
       2976.4800        32.164400        5.0856400
       3024.6300        32.170700        4.9524800
       3073.5500        32.174900        4.8226800
       3123.2600        32.177200        4.6959900
       3173.7800        32.177700        4.5724000
       3225.1100        32.176400        4.4518500
       3277.2700        32.173500        4.3342900
       3330.2800        32.169100        4.2196300
       3384.1500        32.163300        4.1078400
       3438.8800        32.156100        3.9988200
       3494.5000        32.147600        3.8925400
       3551.0200        32.138000        3.7889600
       3608.4600        32.127300        3.6879700
       3666.8200        32.115500        3.5895200
       3726.1300        32.102700        3.4935800
       3786.4000        32.089000        3.4001000
       3847.6400        32.074500        3.3090100
       3909.8700        32.059200        3.2202200
       3973.1100        32.043100        3.1336900
       4037.3800        32.026300        3.0494500
       4102.6800        32.008900        2.9673300
       4169.0300        31.990900        2.8873500
       4236.4600        31.972300        2.8094500
       4304.9800        31.953200        2.7335000
       4374.6200        31.933500        2.6596000
       4445.3700        31.913400        2.5876300
       4517.2700        31.892900        2.5175100
       4590.3300        31.871900        2.4491600
       4664.5800        31.850500        2.3826800
       4740.0300        31.828800        2.3178900
       4816.6900        31.806700        2.2548900
       4894.6000        31.784300        2.1935000
       4973.7700        31.761600        2.1336900
       5054.2100        31.738500        2.0754600
       5135.9600        31.715200        2.0188200
       5219.0300        31.691600        1.9636400
       5303.4400        31.667700        1.9098700
       5389.2200        31.643400        1.8576200
       5476.3900        31.619000        1.8067400
       5564.9700        31.594300        1.7571300
       5654.9800        31.569300        1.7088800
       5746.4400        31.544000        1.6619500
       5839.3900        31.518400        1.6162000
       5933.8300        31.492500        1.5717400
       6029.8100        31.466400        1.5284100
       6127.3300        31.439900        1.4862700
       6226.4400        31.413000        1.4452100
       6327.1500        31.385700        1.4052900
       6429.4800        31.358100        1.3664500
       6533.4800        31.330100        1.3285200
       6639.1500        31.301500        1.2916900
       6746.5400        31.272400        1.2559000
       6855.6500        31.242900        1.2210300
       6966.5400        31.212700        1.1870300
       7079.2200        31.181800        1.1539800
       7193.7200        31.150300        1.1218100
       7310.0700        31.117900        1.0904900
       7428.3100        31.084600        1.0600200
       7548.4500        31.050300        1.0303600
       7670.5400        31.015000        1.0015000
       7794.6100        30.978400       0.97340400
       7920.6800        30.940400       0.94605600
       8048.7900        30.900900       0.91943500
       8178.9800        30.859600       0.89353100
       8311.2600        30.816400       0.86831800
       8445.6900        30.770800       0.84378300
       8582.2900        30.722700       0.81988600
       8721.1100        30.671500       0.79663500
       8862.1600        30.616800       0.77400500
       9005.5000        30.558100       0.75197000
       9151.1600        30.494400       0.73052900
       9299.1700        30.424900       0.70965500
       9449.5800        30.348400       0.68933800
       9602.4200        30.263000       0.66955700
       9757.7300        30.166600       0.65031300
       9915.5500        30.056000       0.63156800
       10075.900        29.926500       0.61332200
       10238.900        29.770500       0.59556000
       10404.500        29.575600       0.57826800
       10572.800        29.318400       0.56143300
       10743.800        28.946300       0.54504400
       10917.600        28.295600       0.52908600
       11094.200        25.116800       0.51355000
       11103.000        20.298600       0.51279000
       11103.200        20.299000        3.8971200
       11273.600        28.385100        3.8082800
       11455.900        29.223800        3.7168900
       11641.200        29.719300        3.6270400
       11829.500        30.073800        3.5387400
       12020.800        30.349700        3.4519900
       12215.300        30.574800        3.3668200
       12412.800        30.764200        3.2832200
       12613.600        30.926800        3.2011900
       12817.600        31.068500        3.1207400
       13025.000        31.193400        3.0418600
       13235.600        31.304500        2.9645600
       13449.700        31.403900        2.8888100
       13667.200        31.493300        2.8146200
       13888.300        31.574000        2.7419800
       14112.900        31.647200        2.6708700
       14341.200        31.713700        2.6012800
       14573.100        31.774300        2.5332000
       14808.900        31.829500        2.4666100
       15048.400        31.880000        2.4014900
       15291.800        31.926000        2.3378300
       15539.100        31.968200        2.2756200
       15790.400        32.006700        2.2148200
       16045.800        32.042000        2.1554200
       16305.400        32.074200        2.0974100
       16569.100        32.103700        2.0407600
       16837.100        32.130600        1.9854400
       17109.400        32.155100        1.9314500
       17386.100        32.177400        1.8787500
       17667.400        32.197700        1.8273300
       17953.100        32.216100        1.7771600
       18243.500        32.232800        1.7282300
       18538.600        32.247800        1.6805000
       18838.400        32.261300        1.6339600
       19143.100        32.273400        1.5885800
       19452.700        32.284200        1.5443400
       19767.400        32.293800        1.5012200
       20087.100        32.302200        1.4592000
       20412.000        32.309600        1.4182500
       20742.100        32.316000        1.3783600
       21077.600        32.321400        1.3394900
       21418.500        32.326000        1.3016300
       21765.000        32.329800        1.2647600
       22117.000        32.332900        1.2288500
       22474.700        32.335200        1.1938900
       22838.200        32.336900        1.1598500
       23207.600        32.338000        1.1267200
       23583.000        32.338500        1.0944600
       23964.400        32.338500        1.0630700
       24352.000        32.338100        1.0325200
       24745.900        32.337100        1.0027900
       25146.200        32.335800       0.97386400
       25552.900        32.334000       0.94572200
       25966.200        32.331900       0.91834500
       26386.100        32.329500       0.89171400
       26812.900        32.326800       0.86581200
       27246.600        32.323800       0.84062000
       27687.300        32.320500       0.81612300
       28135.100        32.317000       0.79230000
       28590.200        32.313300       0.76913800
       29052.600        32.309500       0.74661800
       29522.500        32.307600       0.72472400
       30000.000        32.294600       0.70344200
       30400.000        32.279800       0.67370700
       30800.000        32.276300       0.65759500
       31200.000        32.272800       0.64207000
       31500.000        32.270200       0.63079300
       31900.000        32.266700       0.61622600
       32300.000        32.263200       0.60217000
       32600.000        32.260600       0.59194900
       33000.000        32.257200       0.57873200
       33400.000        32.253700       0.56583500
       33800.000        32.250200       0.55337300
       34100.000        32.247600       0.54430100
       34500.000        32.244100       0.53255600
       34900.000        32.240600       0.52119500
       35300.000        32.237100       0.51013000
       35700.000        32.233700       0.49939600
       36030.000        32.230800       0.49080000
       36500.000        32.226800       0.47894100
       37000.000        32.222500       0.46680000
       37500.000        32.218300       0.45512300
       38000.000        32.214100       0.44388800
       38500.000        32.210000       0.43302700
       39000.000        32.205900       0.42256700
       39500.000        32.201900       0.41248800
       40000.000        32.197900       0.40277200
       40800.000        32.191800       0.38781800
       41500.000        32.186400       0.37541500
       42300.000        32.180500       0.36196700
       43000.000        32.175300       0.35079200
       43800.000        32.169600       0.33857200
       44500.000        32.164700       0.32840200
       45300.000        32.159300       0.31732700
       46000.000        32.154600       0.30807900
       46500.000        32.151300       0.30172100
       47000.000        32.148100       0.29556100
       47500.000        32.144900       0.28958900
       48000.000        32.141800       0.28379900
       48500.000        32.138800       0.27816000
       49000.000        32.135800       0.27269000
       49500.000        32.132800       0.26738000
       50000.000        32.129900       0.26222600
       50500.000        32.127100       0.25718200
       51000.000        32.124300       0.25228300
       51500.000        32.121600       0.24752300
       52000.000        32.118800       0.24289800
       52500.000        32.116100       0.23840300
       53000.000        32.113500       0.23403200
       53500.000        32.110900       0.22978200
       54000.000        32.108300       0.22564700
       55000.000        32.103400       0.21770900
       56000.000        32.098500       0.21014500
       56800.000        32.094800       0.20437600
       57530.000        32.091400       0.19931800
       58000.000        32.089300       0.19616000
       58500.000        32.087100       0.19288400
       59540.000        32.082600       0.18632700
       59800.000        32.081600       0.18474100
       60000.000        32.080700       0.18353400
       60800.000        32.077500       0.17878600
       61500.000        32.074600       0.17478200
       62300.000        32.071500       0.17036900
       63000.000        32.068800       0.16664300
       64000.000        32.065100       0.16153000
       65000.000        32.061500       0.15665000
       65900.000        32.058400       0.15242400
       66830.000        32.055100       0.14823400
       67400.000        32.053300       0.14575100
       68000.000        32.051300       0.14320500
       69000.000        32.048100       0.13910700
       70000.000        32.045000       0.13518200
       71000.000        32.042000       0.13140300
       72000.000        32.039000       0.12778000
       72800.000        32.036800       0.12498800
       73500.000        32.034900       0.12262000
       74200.000        32.032900       0.12031900
       74960.000        32.030800       0.11789200
       75500.000        32.029400       0.11620900
       76000.000        32.028100       0.11468300
       77110.000        32.025300       0.11139900
       77900.000        32.023400       0.10914800
       78600.000        32.021600       0.10720900
       79300.000        32.020000       0.10532100
       80000.000        32.018400       0.10348300
       80800.000        32.016600       0.10143100
       81500.000        32.015000      0.099685200
       82300.000        32.013300      0.097744300
       83000.000        32.011700      0.096092000
       84000.000        32.009700      0.093803200
       85000.000        32.007600      0.091595100
       86500.000        32.004700      0.088424000
       88000.000        32.001800      0.085414300
       89000.000        32.000000      0.083492300
       90000.000        31.998200      0.081634300
       91500.000        31.995600      0.078916500
       93000.000        31.993100      0.076331200
       94000.000        31.991500      0.074677000
       95000.000        31.989800      0.073075700
       96500.000        31.987600      0.070770400
       98000.000        31.985300      0.068571800
       99000.000        31.983800      0.067162100
       99500.000        31.983100      0.066473300
       100000.00        31.982400      0.065795100
