;  Atomic scattering factors for He.
;   
;  Concatenation of data from CXRO <http://www-cxro.lbl.gov>
;  and LLNL <http://www-phys.llnl.gov/V_Div/scattering/asf.html>
;  
;  E (eV) f1 f2
;---------------
       10.000000       -9999.0000    9.5123000e-17
       10.161700       -9999.0000    9.6661500e-17
       10.326100       -9999.0000    9.8224900e-17
       10.493100       -9999.0000    9.9813600e-17
       10.662800       -9999.0000    1.0142800e-16
       10.835300       -9999.0000    1.0306900e-16
       11.010600       -9999.0000    1.0473600e-16
       11.188600       -9999.0000    1.0643000e-16
       11.369600       -9999.0000    1.0815100e-16
       11.553500       -9999.0000    1.0990000e-16
       11.740400       -9999.0000    1.1167800e-16
       11.930300       -9999.0000    1.1348400e-16
       12.123200       -9999.0000    1.1532000e-16
       12.319300       -9999.0000    1.1718500e-16
       12.518600       -9999.0000    1.1908000e-16
       12.721000       -9999.0000    1.2100600e-16
       12.926800       -9999.0000    1.2296400e-16
       13.135900       -9999.0000    1.2495200e-16
       13.348300       -9999.0000    1.2697300e-16
       13.564200       -9999.0000    1.2902700e-16
       13.783600       -9999.0000    1.3111400e-16
       14.006600       -9999.0000    1.3323500e-16
       14.233100       -9999.0000    1.3539000e-16
       14.463300       -9999.0000    1.3757900e-16
       14.697300       -9999.0000    1.3980500e-16
       14.935000       -9999.0000    1.4206600e-16
       15.176500       -9999.0000    1.4436400e-16
       15.422000       -9999.0000    1.4669900e-16
       15.671400       -9999.0000    1.4907100e-16
       15.924900       -9999.0000    1.5148300e-16
       16.182500       -9999.0000    1.5393300e-16
       16.444200       -9999.0000    1.5642200e-16
       16.710200       -9999.0000    1.5895200e-16
       16.980500       -9999.0000    1.6152300e-16
       17.255100       -9999.0000    1.6413600e-16
       17.534200       -9999.0000    1.6679100e-16
       17.817800       -9999.0000    1.6948800e-16
       18.106000       -9999.0000    1.7223000e-16
       18.398900       -9999.0000    1.7501500e-16
       18.696400       -9999.0000    1.7784600e-16
       18.998800       -9999.0000    1.8072300e-16
       19.306100       -9999.0000    1.8364600e-16
       19.618400       -9999.0000    1.8661600e-16
       19.935700       -9999.0000    1.8963400e-16
       20.258200       -9999.0000    1.9270200e-16
       20.585800       -9999.0000    1.9581800e-16
       20.918800       -9999.0000    1.9898600e-16
       21.257100       -9999.0000    2.0220400e-16
       21.600900       -9999.0000    2.0547400e-16
       21.950300       -9999.0000    2.0879800e-16
       22.305300       -9999.0000    2.1217500e-16
       22.666100       -9999.0000    2.1560700e-16
       23.032700       -9999.0000    2.1909400e-16
       23.405300       -9999.0000    2.2263800e-16
       23.783800       -9999.0000    2.2623900e-16
       24.168500       -9999.0000    2.2989800e-16
       24.500000       -9999.0000    2.3305100e-16
       24.700000       -9999.0000        2.7682300
       24.956600       -9999.0000        2.7462600
       25.360300       -9999.0000        2.7125000
       25.770500       -9999.0000        2.6791500
       26.187300       -9999.0000        2.6462100
       26.610900       -9999.0000        2.6136800
       27.041300       -9999.0000        2.5815500
       27.478600       -9999.0000        2.5498100
       27.923100       -9999.0000        2.5184600
       28.374700       -9999.0000        2.4875000
       28.833700       -9999.0000        2.4569200
       29.300000       0.26747000        2.4267200
       29.773900       0.36284300        2.3968900
       30.255500       0.45123400        2.3685300
       30.744900       0.53406700        2.3405100
       31.242100       0.61194500        2.3128200
       31.747500       0.68552700        2.2854500
       32.260900       0.75544300        2.2584100
       32.782700       0.82221100        2.2316900
       33.313000       0.88784600        2.2052900
       33.851800       0.95192200        2.1764300
       34.399300        1.0112600        2.1442900
       34.955700        1.0660500        2.1126400
       35.521100        1.1175500        2.0814500
       36.095600        1.1662500        2.0507200
       36.679400        1.2124900        2.0204400
       37.272700        1.2565200        1.9906100
       37.875500        1.2985700        1.9612200
       38.488200        1.3388200        1.9322700
       39.110700        1.3774600        1.9037400
       39.743200        1.4146700        1.8756400
       40.386100        1.4507000        1.8479500
       41.039300        1.4860300        1.8206600
       41.703100        1.5208900        1.7923300
       42.377600        1.5537200        1.7628300
       43.063000        1.5840600        1.7338100
       43.759500        1.6128900        1.7052700
       44.467300        1.6403200        1.6772000
       45.186500        1.6665100        1.6495900
       45.917400        1.6915400        1.6224400
       46.660000        1.7155100        1.5957300
       47.414700        1.7384700        1.5694600
       48.181600        1.7604800        1.5436300
       48.960900        1.7815500        1.5182200
       49.752800        1.8016200        1.4932300
       50.557600        1.8206600        1.4691400
       51.375300        1.8393400        1.4460800
       52.206200        1.8579600        1.4233900
       53.050600        1.8762200        1.4010500
       53.908700        1.8941700        1.3790700
       54.780600        1.9118500        1.3574300
       55.666700        1.9293300        1.3361200
       56.567000        1.9466900        1.3151600
       57.482000        1.9640600        1.2945200
       58.411700        1.9816300        1.2742000
       59.356400        1.9996900        1.2542100
       60.316500        2.0182300        1.2345300
       61.292100        2.0440700        1.2151500
       62.283400        2.0685500        1.1826200
       63.290800        2.0835600        1.1507200
       64.314500        2.0959000        1.1196800
       65.354700        2.1057400        1.0894800
       66.411800        2.1133100        1.0600900
       67.485900        2.1184600        1.0315000
       68.577500        2.1194200        1.0036700
       69.686700        2.1194200       0.98408500
       70.813800        2.1223300       0.96555500
       71.959100        2.1264300       0.94737200
       73.123000        2.1309300       0.92953400
       74.305700        2.1356700       0.91203100
       75.507600        2.1405500       0.89485800
       76.728900        2.1455200       0.87800800
       77.969900        2.1505500       0.86147400
       79.231000        2.1556500       0.84525400
       80.512500        2.1608600       0.82933700
       81.814700        2.1662500       0.81372100
       83.138000        2.1718700       0.79839900
       84.482700        2.1787700       0.78336500
       85.849100        2.1864800       0.76678200
       87.237700        2.1927100       0.74786500
       88.648700        2.1971900       0.72941600
       90.082500        2.2007100       0.71142100
       91.539500        2.2034800       0.69387100
       93.020100        2.2055400       0.67675300
       94.524600        2.2070300       0.66005700
       96.053500        2.2050300       0.64377400
       97.607100        2.2032100       0.63430600
       99.185800        2.2102900       0.62624500
       100.79000        2.2189700       0.61023800
       102.42000        2.2224700       0.59270000
       104.07700        2.2245600       0.57642200
       105.76000        2.2262200       0.56059000
       107.47100        2.2273000       0.54519300
       109.20900        2.2279500       0.53022000
       110.97500        2.2282500       0.51565800
       112.77000        2.2282600       0.50149500
       114.59400        2.2280200       0.48772100
       116.44800        2.2275900       0.47432700
       118.33100        2.2269900       0.46130000
       120.24500        2.2262700       0.44863000
       122.19000        2.2254700       0.43630800
       124.16600        2.2246800       0.42432600
       126.17500        2.2241500       0.41267100
       128.21500        2.2235300       0.40032700
       130.28900        2.2222700       0.38828900
       132.39700        2.2207000       0.37661200
       134.53800        2.2189400       0.36528600
       136.71400        2.2170200       0.35430100
       138.92500        2.2150200       0.34364600
       141.17200        2.2130000       0.33331200
       143.45600        2.2111600       0.32328800
       145.77600        2.2092200       0.31272600
       148.13400        2.2067200       0.30249200
       150.53000        2.2039600       0.29259300
       152.96400        2.2009900       0.28301800
       155.43900        2.1978400       0.27375600
       157.95300        2.1945200       0.26479800
       160.50700        2.1909300       0.25613300
       163.10300        2.1869400       0.24784100
       165.74200        2.1829800       0.24085000
       168.42200        2.1795600       0.23405600
       171.14600        2.1763600       0.22745500
       173.91500        2.1733100       0.22103900
       176.72700        2.1703800       0.21480400
       179.58600        2.1675900       0.20874500
       182.49100        2.1650700       0.20282800
       185.44200        2.1625800       0.19667100
       188.44200        2.1598700       0.19070200
       191.48900        2.1571400       0.18491300
       194.58700        2.1544200       0.17930000
       197.73400        2.1517000       0.17385800
       200.93200        2.1490000       0.16858100
       204.18200        2.1463200       0.16346400
       207.48500        2.1436600       0.15850200
       210.84000        2.1410300       0.15369100
       214.25100        2.1384300       0.14902600
       217.71600        2.1358700       0.14450300
       221.23700        2.1333400       0.14011600
       224.81600        2.1308600       0.13586200
       228.45200        2.1284100       0.13173600
       232.14700        2.1260100       0.12773400
       235.90200        2.1236600       0.12385500
       239.71700        2.1213600       0.12009300
       243.59500        2.1191200       0.11644600
       247.53500        2.1169500       0.11290900
       251.53800        2.1148700       0.10948000
       255.60700        2.1129100       0.10615500
       259.74100        2.1113200       0.10293000
       263.94200        2.1102200      0.099402900
       268.21100        2.1079400      0.094196700
       272.54900        2.1045900      0.090852700
       276.95700        2.1021300      0.087936100
       281.43700        2.0997900      0.085065800
       285.98900        2.0975200      0.082272800
       290.61500        2.0953100      0.079569400
       295.31500        2.0931500      0.076955600
       300.09200        2.0910300      0.074426400
       304.94500        2.0889600      0.071980800
       309.87800        2.0869300      0.069616500
       314.89000        2.0849300      0.067328600
       319.98300        2.0829800      0.065115600
       325.15800        2.0810700      0.062975400
       330.41800        2.0791900      0.060906800
       335.76200        2.0773600      0.058905900
       341.19200        2.0755600      0.056970100
       346.71100        2.0738000      0.055097800
       352.31900        2.0720700      0.053287300
       358.01700        2.0703800      0.051537400
       363.80800        2.0687300      0.049843400
       369.69200        2.0671200      0.048204900
       375.67200        2.0655400      0.046620500
       381.74800        2.0640100      0.045088800
       387.92200        2.0625200      0.043595800
       394.19700        2.0610600      0.042126800
       400.57300        2.0596200      0.040693100
       407.05200        2.0581900      0.039303200
       413.63500        2.0567900      0.037963100
       420.32600        2.0554100      0.036667700
       427.12400        2.0540500      0.035416200
       434.03200        2.0527300      0.034207300
       441.05200        2.0514200      0.033039800
       448.18600        2.0501500      0.031912800
       455.43500        2.0489000      0.030826700
       462.80200        2.0476700      0.029779700
       470.28700        2.0464800      0.028769200
       477.89400        2.0453100      0.027792800
       485.62300        2.0441700      0.026849500
       493.47800        2.0430500      0.025938300
       501.45900        2.0419600      0.025058300
       509.57000        2.0409000      0.024208000
       517.81200        2.0398600      0.023387200
       526.18700        2.0388400      0.022596800
       534.69800        2.0378500      0.021837600
       543.34600        2.0368800      0.021106200
       552.13400        2.0359500      0.020399500
       561.06500        2.0350500      0.019689700
       570.13900        2.0341500      0.018994800
       579.36100        2.0332600      0.018341100
       588.73200        2.0323900      0.017714800
       598.25400        2.0315500      0.017112900
       607.93000        2.0307400      0.016531900
       617.76300        2.0299400      0.015970600
       627.75500        2.0291800      0.015426600
       637.90800        2.0284500      0.014883500
       648.22600        2.0277200      0.014334700
       658.71100        2.0269800      0.013790300
       669.36500        2.0262400      0.013266700
       680.19100        2.0254800      0.012807000
       691.19300        2.0247600      0.012396600
       702.37200        2.0241000      0.012009000
       713.73300        2.0234700      0.011612300
       725.27700        2.0228500      0.011214600
       737.00800        2.0222400      0.010830300
       748.92800        2.0216500      0.010459300
       761.04200        2.0210700      0.010101000
       773.35100        2.0205000     0.0097534300
       785.85900        2.0199500     0.0094147900
       798.57000        2.0194200     0.0090854600
       811.48600        2.0188900     0.0087677600
       824.61100        2.0183700     0.0084609000
       837.94900        2.0178700     0.0081645100
       851.50200        2.0173700     0.0078825200
       865.27400        2.0168900     0.0076141000
       879.26900        2.0164200     0.0073581500
       893.49100        2.0159700     0.0071108700
       907.94300        2.0155300     0.0068718700
       922.62800        2.0151000     0.0066409000
       937.55100        2.0146900     0.0064188900
       952.71500        2.0142900     0.0062046000
       968.12400        2.0138900     0.0059976800
       983.78300        2.0135100     0.0057976800
       999.69500        2.0131500     0.0056034900
       1015.8600        2.0127900     0.0054149200
       1032.2900        2.0124400     0.0052248400
       1048.9900        2.0121000     0.0050426100
       1065.9600        2.0117700     0.0048680400
       1083.2000        2.0114400     0.0046994600
       1100.7200        2.0111300     0.0045367300
       1118.5200        2.0108200     0.0043796400
       1136.6100        2.0105100     0.0042280100
       1155.0000        2.0102200     0.0040816300
       1173.6800        2.0099400     0.0039403200
       1192.6600        2.0096600     0.0038038500
       1211.9500        2.0093900     0.0036721500
       1231.5500        2.0091200     0.0035450700
       1251.4700        2.0088600     0.0034235200
       1271.7200        2.0086100     0.0033074300
       1292.2900        2.0083700     0.0031968500
       1313.1900        2.0081300     0.0030899200
       1334.4300        2.0079000     0.0029865900
       1356.0100        2.0076800     0.0028867600
       1377.9400        2.0074700     0.0027902400
       1400.2300        2.0072600     0.0026969200
       1422.8800        2.0070500     0.0026067100
       1445.8900        2.0068600     0.0025195200
       1469.2800        2.0066700     0.0024345800
       1493.0400        2.0064900     0.0023515200
       1517.1900        2.0063100     0.0022669800
       1541.7300        2.0061300     0.0021849100
       1566.6700        2.0059600     0.0021058400
       1592.0100        2.0057900     0.0020295900
       1617.7600        2.0056300     0.0019561400
       1643.9200        2.0054700     0.0018854200
       1670.5100        2.0053100     0.0018171200
       1697.5300        2.0051600     0.0017513200
       1724.9900        2.0050100     0.0016879500
       1752.8900        2.0048700     0.0016258800
       1781.2400        2.0047300     0.0015657600
       1810.0500        2.0046000     0.0015076100
       1839.3200        2.0044600     0.0014516200
       1869.0700        2.0043300     0.0013977000
       1899.3000        2.0042100     0.0013457800
       1930.0200        2.0040800     0.0012958000
       1961.2400        2.0039600     0.0012476800
       1992.9600        2.0038500     0.0012013300
       2025.2000        2.0037400     0.0011572400
       2057.9500        2.0036300     0.0011137500
       2091.2400        2.0035200     0.0010717800
       2125.0600        2.0034200     0.0010312900
       2159.4300        2.0033100    0.00099224200
       2194.3600        2.0032200    0.00095458300
       2229.8500        2.0031200    0.00091825700
       2265.9200        2.0030300    0.00088324400
       2302.5700        2.0029400    0.00084948800
       2339.8100        2.0028500    0.00081693900
       2377.6600        2.0027600    0.00078556500
       2416.1100        2.0026800    0.00075533400
       2455.1900        2.0026000    0.00072622000
       2494.9000        2.0025200    0.00069815900
       2535.2600        2.0024400    0.00067110800
       2576.2600        2.0023700    0.00064507900
       2617.9300        2.0022900    0.00061999300
       2660.2700        2.0022200    0.00059585300
       2703.3000        2.0021500    0.00057261200
       2747.0300        2.0020900    0.00055021600
       2791.4600        2.0020200    0.00052867900
       2836.6100        2.0019600    0.00050795800
       2882.4900        2.0019000    0.00048801000
       2929.1100        2.0018400    0.00046882900
       2976.4800        2.0017800    0.00045038700
       3024.6300        2.0017200    0.00043263300
       3073.5500        2.0016700    0.00041559500
       3123.2600        2.0016100    0.00039918400
       3173.7800        2.0015600    0.00038341500
       3225.1100        2.0015100    0.00036827900
       3277.2700        2.0014600    0.00035374600
       3330.2800        2.0014100    0.00033976600
       3384.1500        2.0013700    0.00032634900
       3438.8800        2.0013200    0.00031347200
       3494.5000        2.0012800    0.00030111100
       3551.0200        2.0012400    0.00028925300
       3608.4600        2.0011900    0.00027787600
       3666.8200        2.0011500    0.00026696500
       3726.1300        2.0011100    0.00025650500
       3786.4000        2.0010800    0.00024647900
       3847.6400        2.0010400    0.00023687300
       3909.8700        2.0010000    0.00022767100
       3973.1100        2.0009700    0.00021885700
       4037.3800        2.0009400    0.00021045600
       4102.6800        2.0009000    0.00020235400
       4169.0300        2.0008700    0.00019456900
       4236.4600        2.0008400    0.00018709500
       4304.9800        2.0008100    0.00017991500
       4374.6200        2.0007800    0.00017301600
       4445.3700        2.0007500    0.00016639100
       4517.2700        2.0007300    0.00016002300
       4590.3300        2.0007000    0.00015390800
       4664.5800        2.0006800    0.00014803200
       4740.0300        2.0006500    0.00014238500
       4816.6900        2.0006300    0.00013696100
       4894.6000        2.0006000    0.00013174500
       4973.7700        2.0005800    0.00012673400
       5054.2100        2.0005600    0.00012191900
       5135.9600        2.0005400    0.00011729100
       5219.0300        2.0005200    0.00011284500
       5303.4400        2.0005000    0.00010856900
       5389.2200        2.0004800    0.00010445900
       5476.3900        2.0004600    0.00010050900
       5564.9700        2.0004400    9.6711400e-05
       5654.9800        2.0004200    9.3058300e-05
       5746.4400        2.0004000    8.9547900e-05
       5839.3900        2.0003900    8.6171000e-05
       5933.8300        2.0003700    8.2927100e-05
       6029.8100        2.0003600    7.9801300e-05
       6127.3300        2.0003400    7.6804500e-05
       6226.4400        2.0003300    7.3919200e-05
       6327.1500        2.0003100    7.1141200e-05
       6429.4800        2.0003000    6.8472700e-05
       6533.4800        2.0002800    6.5905000e-05
       6639.1500        2.0002700    6.3433900e-05
       6746.5400        2.0002600    6.1057500e-05
       6855.6500        2.0002500    5.8772100e-05
       6966.5400        2.0002300    5.6574200e-05
       7079.2200        2.0002200    5.4459100e-05
       7193.7200        2.0002100    5.2424400e-05
       7310.0700        2.0002000    5.0466700e-05
       7428.3100        2.0001900    4.8583000e-05
       7548.4500        2.0001800    4.6770900e-05
       7670.5400        2.0001700    4.5027300e-05
       7794.6100        2.0001600    4.3349500e-05
       7920.6800        2.0001500    4.1734400e-05
       8048.7900        2.0001400    4.0180800e-05
       8178.9800        2.0001300    3.8685100e-05
       8311.2600        2.0001200    3.7246300e-05
       8445.6900        2.0001200    3.5860700e-05
       8582.2900        2.0001100    3.4527900e-05
       8721.1100        2.0001000    3.3244400e-05
       8862.1600        2.0000900    3.2009500e-05
       9005.5000        2.0000800    3.0821100e-05
       9151.1600        2.0000800    2.9676200e-05
       9299.1700        2.0000700    2.8574900e-05
       9449.5800        2.0000600    2.7514400e-05
       9602.4200        2.0000600    2.6493000e-05
       9757.7300        2.0000500    2.5510500e-05
       9915.5500        2.0000500    2.4563900e-05
       10075.900        2.0000400    2.3652900e-05
       10238.900        2.0000300    2.2775700e-05
       10404.500        2.0000300    2.1931200e-05
       10572.800        2.0000200    2.1118000e-05
       10743.800        2.0000200    2.0335000e-05
       10917.600        2.0000100    1.9581100e-05
       11094.200        2.0000100    1.8855100e-05
       11273.600        2.0000000    1.8156000e-05
       11455.900        2.0000000    1.7482800e-05
       11641.200        1.9999900    1.6834500e-05
       11829.500        1.9999900    1.6210200e-05
       12020.800        1.9999900    1.5609100e-05
       12215.300        1.9999800    1.5030100e-05
       12412.800        1.9999800    1.4472500e-05
       12613.600        1.9999700    1.3935500e-05
       12817.600        1.9999700    1.3418400e-05
       13025.000        1.9999700    1.2920300e-05
       13235.600        1.9999600    1.2440600e-05
       13449.700        1.9999600    1.1978600e-05
       13667.200        1.9999600    1.1533600e-05
       13888.300        1.9999500    1.1105100e-05
       14112.900        1.9999500    1.0692300e-05
       14341.200        1.9999500    1.0294800e-05
       14573.100        1.9999400    9.9118800e-06
       14808.900        1.9999400    9.5430900e-06
       15048.400        1.9999400    9.1878900e-06
       15291.800        1.9999400    8.8457700e-06
       15539.100        1.9999300    8.5162700e-06
       15790.400        1.9999300    8.1988900e-06
       16045.800        1.9999300    7.8932100e-06
       16305.400        1.9999300    7.5987900e-06
       16569.100        1.9999200    7.3152200e-06
       16837.100        1.9999200    7.0421000e-06
       17109.400        1.9999200    6.7790500e-06
       17386.100        1.9999200    6.5257000e-06
       17667.400        1.9999200    6.2816800e-06
       17953.100        1.9999100    6.0466800e-06
       18243.500        1.9999100    5.8203400e-06
       18538.600        1.9999100    5.6023600e-06
       18838.400        1.9999100    5.3924200e-06
       19143.100        1.9999100    5.1902500e-06
       19452.700        1.9999000    4.9955500e-06
       19767.400        1.9999000    4.8080400e-06
       20087.100        1.9999000    4.7456400e-06
       20412.000        1.9999000    4.5591600e-06
       20742.100        1.9999000    4.3801300e-06
       21077.600        1.9999000    4.2082200e-06
       21418.500        1.9998900    4.0431600e-06
       21765.000        1.9998900    3.8846700e-06
       22117.000        1.9998900    3.7324700e-06
       22474.700        1.9998900    3.5863200e-06
       22838.200        1.9998900    3.4459600e-06
       23207.600        1.9998900    3.3111700e-06
       23583.000        1.9998900    3.1817100e-06
       23964.400        1.9998900    3.0573800e-06
       24352.000        1.9998900    2.9379500e-06
       24745.900        1.9998800    2.8232500e-06
       25146.200        1.9998800    2.7130700e-06
       25552.900        1.9998800    2.6072400e-06
       25966.200        1.9998800    2.5055800e-06
       26386.100        1.9998800    2.4079100e-06
       26812.900        1.9998800    2.3140900e-06
       27246.600        1.9998800    2.2239600e-06
       27687.300        1.9998800    2.1373700e-06
       28135.100        1.9998800    2.0541800e-06
       28590.200        1.9998800    1.9742500e-06
       29052.600        1.9998800    1.8974500e-06
       29522.500        1.9998700    1.8236700e-06
       30000.000        1.9998700    1.7527700e-06
       36030.000        1.9998600    1.2581700e-06
       40000.000        1.9998600    9.7656900e-07
       46000.000        1.9998600    6.9616000e-07
       50000.000        1.9998500    5.6886900e-07
       57530.000        1.9998500    4.0495300e-07
       59540.000        1.9998500    3.7262300e-07
       60000.000        1.9998500    3.6573900e-07
       66830.000        1.9998500    2.8248100e-07
       70000.000        1.9998500    2.5279400e-07
       74960.000        1.9998500    2.1455000e-07
       77110.000        1.9998500    2.0049500e-07
       80000.000        1.9998500    1.8357600e-07
       90000.000        1.9998500    1.3843800e-07
       100000.00        1.9998500    1.0755200e-07
