;  Atomic scattering factors for Hf.
;   
;  Concatenation of data from CXRO <http://www-cxro.lbl.gov>
;  and LLNL <http://www-phys.llnl.gov/V_Div/scattering/asf.html>
;  
;  E (eV) f1 f2
;---------------
       10.000000       -9999.0000        2.6233800
       10.161700       -9999.0000        2.7148500
       10.326100       -9999.0000        2.8095100
       10.493100       -9999.0000        2.9032600
       10.662800       -9999.0000        2.9824700
       10.835300       -9999.0000        3.0638400
       11.010600       -9999.0000        3.1474400
       11.188600       -9999.0000        3.2134600
       11.369600       -9999.0000        3.2750900
       11.553500       -9999.0000        3.3378900
       11.740400       -9999.0000        3.4018900
       11.930300       -9999.0000        3.4437200
       12.123200       -9999.0000        3.4847900
       12.319300       -9999.0000        3.5263400
       12.518600       -9999.0000        3.5616700
       12.721000       -9999.0000        3.5927100
       12.926800       -9999.0000        3.6240200
       13.135900       -9999.0000        3.6556000
       13.348300       -9999.0000        3.6853400
       13.564200       -9999.0000        3.6629600
       13.783600       -9999.0000        3.6407100
       14.006600       -9999.0000        3.6186100
       14.233100       -9999.0000        3.5996400
       14.463300       -9999.0000        3.5837900
       14.697300       -9999.0000        3.5680100
       14.935000       -9999.0000        3.5523000
       15.176500       -9999.0000        3.5296500
       15.422000       -9999.0000        3.4946000
       15.671400       -9999.0000        3.4598900
       15.924900       -9999.0000        3.4255200
       16.182500       -9999.0000        3.3915000
       16.444200       -9999.0000        3.3453500
       16.710200       -9999.0000        3.2924900
       16.980500       -9999.0000        3.2404700
       17.255100       -9999.0000        3.1892600
       17.534200       -9999.0000        3.1388700
       17.817800       -9999.0000        3.0855100
       18.106000       -9999.0000        3.0319400
       18.398900       -9999.0000        2.9793000
       18.696400       -9999.0000        2.9275700
       18.998800       -9999.0000        2.8767400
       19.306100       -9999.0000        2.8267900
       19.618400       -9999.0000        2.7814300
       19.935700       -9999.0000        2.7392200
       20.258200       -9999.0000        2.6976600
       20.585800       -9999.0000        2.6567200
       20.918800       -9999.0000        2.6164100
       21.257100       -9999.0000        2.5767100
       21.600900       -9999.0000        2.5424200
       21.950300       -9999.0000        2.5154700
       22.305300       -9999.0000        2.4888100
       22.666100       -9999.0000        2.4624300
       23.032700       -9999.0000        2.4363300
       23.405300       -9999.0000        2.4105100
       23.783800       -9999.0000        2.3789600
       24.168500       -9999.0000        2.3463500
       24.559400       -9999.0000        2.3141900
       24.956600       -9999.0000        2.2824700
       25.360300       -9999.0000        2.2522300
       25.770500       -9999.0000        2.2235500
       26.187300       -9999.0000        2.1952300
       26.610900       -9999.0000        2.1707200
       27.041300       -9999.0000        2.1789900
       27.478600       -9999.0000        2.1872800
       27.923100       -9999.0000        2.1956000
       28.374700       -9999.0000        2.2578700
       28.833700       -9999.0000        2.3284800
       29.300000       0.44462100        2.4012900
       29.773900       0.13682800        2.4822300
       30.255500      -0.17577200        2.6264200
       30.744900      -0.48972900        2.7789700
       31.242100      -0.83056300        2.9403900
       31.747500       -1.2033500        3.1320700
       32.260900       -1.6142800        3.3484900
       32.782700       -2.1539800        3.6111000
       33.313000       -2.6696100        4.1107000
       33.851800       -3.1158200        4.6794200
       34.399300       -3.5236800        5.3268300
       34.955700       -3.8810300        6.0638000
       35.521100       -4.1503200        6.9027400
       36.095600       -4.3323700        7.7992200
       36.679400       -4.3812500        8.8015700
       37.272700       -4.2066900        9.8305100
       37.875500       -3.9587600        10.725400
       38.488200       -3.5436800        11.701800
       39.110700       -3.0777300        12.400300
       39.743200       -2.6369600        13.133000
       40.386100       -2.1265200        13.909000
       41.039300       -1.4239000        14.679200
       41.703100      -0.70581600        15.189300
       42.377600     -0.030714500        15.717200
       43.063000       0.75641000        16.263300
       43.759500        1.6796200        16.698000
       44.467300        2.5586500        16.889600
       45.186500        3.3860400        17.083400
       45.917400        4.2875300        17.192800
       46.660000        5.1289700        17.121300
       47.414700        5.8450600        17.050200
       48.181600        6.5359000        16.979300
       48.960900        7.3218100        16.908800
       49.752800        8.0905400        16.621500
       50.557600        8.6918100        16.289800
       51.375300        9.2239800        15.964700
       52.206200        9.7214500        15.643200
       53.050600        10.173600        15.289800
       53.908700        10.563600        14.944300
       54.780600        10.918900        14.606700
       55.666700        11.245000        14.276700
       56.567000        11.549000        13.954200
       57.482000        11.839800        13.639000
       58.411700        12.141900        13.330800
       59.356400        12.452900        12.937100
       60.316500        12.682800        12.492200
       61.292100        12.827100        12.062500
       62.283400        12.924700        11.647700
       63.290800        12.978100        11.247100
       64.314500        12.988800        10.860300
       65.354700        12.939700        10.486800
       66.411800        12.826200        10.147600
       67.485900        12.698600        9.9453200
       68.577500        12.616400        9.7470300
       69.686700        12.537900        9.5527000
       70.813800        12.452600        9.3622500
       71.959100        12.353000        9.1755800
       73.123000        12.232000        8.9926400
       74.305700        12.051200        8.8133500
       75.507600        11.813200        8.6954200
       76.728900        11.603900        8.7220000
       77.969900        11.463200        8.7486600
       79.231000        11.347700        8.7754000
       80.512500        11.245300        8.8022300
       81.814700        11.147800        8.8291300
       83.138000        11.042800        8.8561100
       84.482700        10.924600        8.9248300
       85.849100        10.839000        9.0128300
       87.237700        10.771700        9.1017000
       88.648700        10.713700        9.1914500
       90.082500        10.657900        9.2820700
       91.539500        10.601400        9.3794600
       93.020100        10.553900        9.5000700
       94.524600        10.522500        9.6222100
       96.053500        10.500600        9.7459400
       97.607100        10.486100        9.8712500
       99.185800        10.477800        9.9981700
       100.79000        10.474900        10.126700
       102.42000        10.476400        10.256900
       104.07700        10.481700        10.388800
       105.76000        10.489800        10.522400
       107.47100        10.498900        10.657700
       109.20900        10.505100        10.798800
       110.97500        10.517200        10.955400
       112.77000        10.540600        11.114300
       114.59400        10.570500        11.275500
       116.44800        10.606100        11.439000
       118.33100        10.646900        11.604900
       120.24500        10.692800        11.773200
       122.19000        10.743500        11.943900
       124.16600        10.799100        12.117100
       126.17500        10.859500        12.292900
       128.21500        10.924800        12.471100
       130.28900        10.995000        12.652000
       132.39700        11.070300        12.835500
       134.53800        11.151100        13.021600
       136.71400        11.238800        13.210500
       138.92500        11.334500        13.401000
       141.17200        11.434500        13.585000
       143.45600        11.535200        13.771500
       145.77600        11.639000        13.960500
       148.13400        11.746500        14.152200
       150.53000        11.858200        14.346500
       152.96400        11.974400        14.543400
       155.43900        12.095300        14.743100
       157.95300        12.221300        14.945500
       160.50700        12.353100        15.150600
       163.10300        12.491100        15.357600
       165.74200        12.634000        15.566700
       168.42200        12.782900        15.778800
       171.14600        12.938400        15.993700
       173.91500        13.101200        16.211500
       176.72700        13.272200        16.432300
       179.58600        13.452700        16.656200
       182.49100        13.646000        16.883000
       185.44200        13.858500        17.113000
       188.44200        14.088100        17.313700
       191.48900        14.305800        17.507400
       194.58700        14.522900        17.703400
       197.73400        14.743000        17.901500
       200.93200        14.968200        18.101800
       204.18200        15.200400        18.304400
       207.48500        15.442000        18.509300
       210.84000        15.697700        18.716400
       214.25100        15.981100        18.912600
       217.71600        16.256400        19.075700
       221.23700        16.523100        19.240300
       224.81600        16.788300        19.406300
       228.45200        17.055500        19.573800
       232.14700        17.326500        19.742700
       235.90200        17.603000        19.913000
       239.71700        17.886700        20.084800
       243.59500        18.182100        20.258100
       247.53500        18.501100        20.424600
       251.53800        18.815200        20.565200
       255.60700        19.124000        20.706700
       259.74100        19.435100        20.849300
       263.94200        19.751400        20.992800
       268.21100        20.075400        21.137300
       272.54900        20.410100        21.282800
       276.95700        20.760000        21.429300
       281.43700        21.133800        21.576800
       285.98900        21.562600        21.725400
       290.61500        22.019100        21.747800
       295.31500        22.414300        21.739000
       300.09200        22.769600        21.730200
       304.94500        23.106600        21.721300
       309.87800        23.429000        21.712500
       314.89000        23.738800        21.703700
       319.98300        24.036100        21.694800
       325.15800        24.315200        21.686000
       330.41800        24.587200        21.704300
       335.76200        24.865400        21.726500
       341.19200        25.147300        21.748600
       346.71100        25.429100        21.770800
       352.31900        25.710600        21.793000
       358.01700        25.991400        21.815200
       363.80800        26.271300        21.837400
       369.69200        26.549200        21.859700
       375.67200        26.825000        21.886300
       381.74800        27.103800        21.915800
       387.92200        27.385600        21.945400
       394.19700        27.669000        21.975000
       400.57300        27.954200        22.004700
       407.05200        28.241000        22.034400
       413.63500        28.530000        22.065200
       420.32600        28.822300        22.096500
       427.12400        29.118500        22.127800
       434.03200        29.419000        22.159100
       441.05200        29.725200        22.190500
       448.18600        30.038900        22.221900
       455.43500        30.375000        22.253400
       462.80200        30.724400        22.249200
       470.28700        31.050700        22.220900
       477.89400        31.362100        22.192500
       485.62300        31.664400        22.164300
       493.47800        31.958500        22.136000
       501.45900        32.242400        22.107800
       509.57000        32.500600        22.079600
       517.81200        32.759500        22.110900
       526.18700        33.046300        22.154800
       534.69800        33.359800        22.198700
       543.34600        33.692200        22.242800
       552.13400        34.046100        22.287000
       561.06500        34.425800        22.331200
       570.13900        34.892800        22.344400
       579.36100        35.332700        22.256300
       588.73200        35.720900        22.168600
       598.25400        36.102100        22.081100
       607.93000        36.483200        21.994100
       617.76300        36.867600        21.907300
       627.75500        37.325700        21.816500
       637.90800        37.764600        21.605400
       648.22600        38.140300        21.375400
       658.71100        38.477900        21.134000
       669.36500        38.764900        20.895300
       680.19100        39.027500        20.690600
       691.19300        39.301100        20.511700
       702.37200        39.595900        20.335700
       713.73300        39.901300        20.117700
       725.27700        40.179500        19.872300
       737.00800        40.424800        19.629700
       748.92800        40.654400        19.390000
       761.04200        40.871500        19.152900
       773.35100        41.078100        18.917200
       785.85900        41.274100        18.679300
       798.57000        41.456700        18.440200
       811.48600        41.625700        18.204100
       824.61100        41.784100        17.970900
       837.94900        41.933800        17.740700
       851.50200        42.074800        17.511200
       865.27400        42.206300        17.282500
       879.26900        42.327800        17.054700
       893.49100        42.439400        16.829800
       907.94300        42.542800        16.607800
       922.62800        42.645800        16.388600
       937.55100        42.740800        16.157400
       952.71500        42.818300        15.925400
       968.12400        42.883100        15.693300
       983.78300        42.935800        15.464600
       999.69500        42.978300        15.236900
       1015.8600        43.016900        15.010200
       1032.2900        43.042500        14.767300
       1048.9900        43.042300        14.525100
       1065.9600        43.023700        14.283700
       1083.2000        42.985500        14.046300
       1100.7200        42.929400        13.812500
       1118.5200        42.855200        13.582400
       1136.6100        42.762300        13.356000
       1155.0000        42.650200        13.133200
       1173.6800        42.517700        12.914000
       1192.6600        42.363600        12.698200
       1211.9500        42.186300        12.486000
       1231.5500        41.983900        12.277300
       1251.4700        41.754100        12.071800
       1271.7200        41.493900        11.869800
       1292.2900        41.200300        11.671500
       1313.1900        40.869400        11.476500
       1334.4300        40.495900        11.284600
       1356.0100        40.073400        11.095600
       1377.9400        39.593900        10.909700
       1400.2300        39.047300        10.726900
       1422.8800        38.420300        10.546900
       1445.8900        37.696100        10.369500
       1469.2800        36.849400        10.192300
       1493.0400        35.846100        10.013900
       1517.1900        34.626000        9.8207700
       1541.7300        33.084400        9.6288800
       1566.6700        31.078700        9.4406600
       1592.0100        28.303100        9.2560400
       1617.7600        23.998700        9.0749400
       1643.9200        15.122400        8.8972800
       1661.6000       -39.149900        8.7807600
       1661.8000       -39.131700        42.128300
       1670.5100        8.8200000        41.808500
       1697.5300        24.469300        40.842200
       1724.9900        31.018600        39.898200
       1752.8900        35.266000        38.976000
       1781.2400        38.406900        38.075100
       1810.0500        40.881400        37.194900
       1839.3200        42.900900        36.334500
       1869.0700        44.582200        35.493600
       1899.3000        45.994900        34.671500
       1930.0200        47.180700        33.868500
       1961.2400        48.160600        33.083800
       1992.9600        48.934900        32.317100
       2025.2000        49.474000        31.575500
       2057.9500        49.665100        30.843900
       2091.2400        48.873300        30.128100
       2107.5000        41.563600        29.788500
       2107.7000        41.570100        34.558100
       2125.0600        49.848700        34.133700
       2159.4300        52.222600        33.318600
       2194.3600        53.614200        32.524600
       2229.8500        54.643000        31.748200
       2265.9200        55.433500        30.991100
       2302.5700        55.999900        30.252200
       2339.8100        56.195100        29.530800
       2365.3000        53.222700        29.053600
       2365.5000        53.226400        30.999700
       2377.6600        56.419200        30.767000
       2416.1100        57.889300        30.050000
       2455.1900        58.748100        29.350000
       2494.9000        59.391300        28.666400
       2535.2600        59.859800        27.999900
       2576.2600        60.031100        27.348500
       2600.8000        57.922600        26.970700
       2601.0000        57.934000        28.425000
       2617.9300        60.447800        28.151400
       2660.2700        61.541600        27.485900
       2703.3000        62.255100        26.837100
       2747.0300        62.837200        26.204300
       2791.4600        63.340400        25.586500
       2836.6100        63.785600        24.985000
       2882.4900        64.186200        24.397400
       2929.1100        64.548200        23.824200
       2976.4800        64.878100        23.265800
       3024.6300        65.179400        22.720600
       3073.5500        65.455500        22.189300
       3123.2600        65.709000        21.670300
       3173.7800        65.941100        21.164700
       3225.1100        66.155600        20.670700
       3277.2700        66.351900        20.189800
       3330.2800        66.532600        19.719900
       3384.1500        66.699300        19.262000
       3438.8800        66.852400        18.814200
       3494.5000        66.992400        18.377900
       3551.0200        67.121000        17.951900
       3608.4600        67.238600        17.536200
       3666.8200        67.346100        17.131000
       3726.1300        67.444500        16.734100
       3786.4000        67.533400        16.347900
       3847.6400        67.614400        15.970600
       3909.8700        67.688100        15.601700
       3973.1100        67.753600        15.241500
       4037.3800        67.812200        14.889800
       4102.6800        67.864300        14.546300
       4169.0300        67.910100        14.210700
       4236.4600        67.950000        13.883000
       4304.9800        67.984400        13.562600
       4374.6200        68.013300        13.249500
       4445.3700        68.037100        12.943500
       4517.2700        68.056000        12.644500
       4590.3300        68.070300        12.352300
       4664.5800        68.080000        12.066400
       4740.0300        68.085400        11.787100
       4816.6900        68.086700        11.513900
       4894.6000        68.083900        11.246800
       4973.7700        68.077100        10.985400
       5054.2100        68.066600        10.729900
       5135.9600        68.052300        10.480000
       5219.0300        68.034300        10.235400
       5303.4400        68.012600        9.9962100
       5389.2200        67.987400        9.7621900
       5476.3900        67.958700        9.5331500
       5564.9700        67.926400        9.3091400
       5654.9800        67.890500        9.0898900
       5746.4400        67.851300        8.8753500
       5839.3900        67.808300        8.6653100
       5933.8300        67.761800        8.4597700
       6029.8100        67.711500        8.2587600
       6127.3300        67.657400        8.0617200
       6226.4400        67.599500        7.8690800
       6327.1500        67.537400        7.6802700
       6429.4800        67.471100        7.4957100
       6533.4800        67.400400        7.3146500
       6639.1500        67.324900        7.1375700
       6746.5400        67.244400        6.9643000
       6855.6500        67.158600        6.7944600
       6966.5400        67.066900        6.6282000
       7079.2200        66.969300        6.4655000
       7193.7200        66.864700        6.3059100
       7310.0700        66.752500        6.1497300
       7428.3100        66.631900        5.9968100
       7548.4500        66.502100        5.8470800
       7670.5400        66.361800        5.7003700
       7794.6100        66.209500        5.5567100
       7920.6800        66.043300        5.4158800
       8048.7900        65.860700        5.2776600
       8178.9800        65.658700        5.1426600
       8311.2600        65.433400        5.0101300
       8445.6900        65.179000        4.8804600
       8582.2900        64.887900        4.7532800
       8721.1100        64.548200        4.6286300
       8862.1600        64.141900        4.5066900
       9005.5000        63.637600        4.3870900
       9151.1600        62.974400        4.2699400
       9299.1700        62.005700        4.1549400
       9449.5800        60.133100        4.0423000
       9560.6000        45.082900        3.9622300
       9560.8000        45.084200        10.808300
       9602.4200        58.154400        10.722800
       9757.7300        61.528500        10.412900
       9915.5500        62.709200        10.111800
       10075.900        63.337200        9.8194700
       10238.900        63.650300        9.5355900
       10404.500        63.683000        9.2599200
       10572.800        63.284500        8.9922000
       10739.300        55.378000        8.7389100
       10739.500        55.379500        12.226100
       10743.800        59.571000        12.217200
       10917.600        63.863700        11.864000
       11094.200        64.566200        11.521000
       11270.600        61.111700        11.193400
       11270.800        61.112400        12.942300
       11273.600        62.999900        12.937400
       11455.900        65.875400        12.625600
       11641.200        66.724400        12.319800
       11829.500        67.347600        12.019800
       12020.800        67.853500        11.725800
       12215.300        68.281900        11.437700
       12412.800        68.653400        11.155400
       12613.600        68.980300        10.878900
       12817.600        69.270800        10.608200
       13025.000        69.530900        10.343200
       13235.600        69.765000        10.083800
       13449.700        69.976500        9.8300100
       13667.200        70.168200        9.5817300
       13888.300        70.342300        9.3389000
       14112.900        70.500700        9.1014400
       14341.200        70.644800        8.8693000
       14573.100        70.776200        8.6423800
       14808.900        70.895900        8.4206300
       15048.400        71.005000        8.2039500
       15291.800        71.104300        7.9922700
       15539.100        71.194700        7.7855200
       15790.400        71.276900        7.5835900
       16045.800        71.351400        7.3864200
       16305.400        71.418900        7.1939200
       16569.100        71.479900        7.0060100
       16837.100        71.534900        6.8226000
       17109.400        71.584200        6.6436200
       17386.100        71.628300        6.4689700
       17667.400        71.667600        6.2985700
       17953.100        71.702300        6.1323500
       18243.500        71.732800        5.9702100
       18538.600        71.759400        5.8120800
       18838.400        71.782400        5.6578700
       19143.100        71.801900        5.5075100
       19452.700        71.818200        5.3609100
       19767.400        71.831600        5.2179900
       20087.100        71.842100        5.0786700
       20412.000        71.850100        4.9428700
       20742.100        71.855600        4.8105300
       21077.600        71.858900        4.6815500
       21418.500        71.860000        4.5558700
       21765.000        71.859200        4.4334100
       22117.000        71.856500        4.3141000
       22474.700        71.852100        4.1978700
       22838.200        71.846100        4.0846400
       23207.600        71.838600        3.9743500
       23583.000        71.829700        3.8669200
       23964.400        71.819500        3.7622900
       24352.000        71.808100        3.6603900
       24745.900        71.795500        3.5611600
       25146.200        71.781900        3.4645300
       25552.900        71.767300        3.3704500
       25966.200        71.751800        3.2788400
       26386.100        71.735400        3.1896500
       26812.900        71.718200        3.1028100
       27246.600        71.700300        3.0182800
       27687.300        71.681800        2.9359900
       28135.100        71.662600        2.8558800
       28590.200        71.642900        2.7779100
       29052.600        71.623100        2.7020100
       29522.500        71.609900        2.6281400
       30000.000        71.558100        2.5562400
       30400.000        71.452500        2.4485600
       30800.000        71.435700        2.3936400
       31200.000        71.418400        2.3406500
       31500.000        71.405500        2.3021000
       31900.000        71.388200        2.2522500
       32300.000        71.370900        2.2040700
       32600.000        71.357800        2.1690000
       33000.000        71.340500        2.1235900
       33400.000        71.323200        2.0795700
       33800.000        71.305900        2.0369800
       34100.000        71.293000        2.0059300
       34500.000        71.275700        1.9656700
       34900.000        71.258500        1.9266700
       35300.000        71.241200        1.8886700
       35700.000        71.223900        1.8517600
       36030.000        71.209700        1.8221600
       36300.000        71.198100        1.7984900
       36600.000        71.185100        1.7727400
       37200.000        71.159300        1.7229700
       37800.000        71.133500        1.6753500
       38375.200        71.108700        1.6315000
       38800.000        71.090400        1.6002000
       39200.000        71.073200        1.5715800
       39600.000        71.056000        1.5437600
       40000.000        71.038800        1.5167100
       40800.000        71.004200        1.4645400
       41500.000        70.973900        1.4211500
       42300.000        70.938900        1.3739900
       43000.000        70.908300        1.3347000
       43800.000        70.872900        1.2919100
       44500.000        70.841800        1.2562100
       45300.000        70.805600        1.2171900
       46000.000        70.774000        1.1844900
       46500.000        70.750700        1.1619700
       47000.000        70.727400        1.1401000
       47500.000        70.703600        1.1188800
       48000.000        70.679700        1.0982600
       48500.000        70.655200        1.0782300
       49000.000        70.630600        1.0587700
       49500.000        70.605400        1.0398500
       50000.000        70.579700        1.0214600
       50500.000        70.553500        1.0037300
       51000.000        70.526700       0.98599700
       51500.000        70.499200       0.96920900
       52000.000        70.471000       0.95242100
       52500.000        70.441900       0.93650800
       53000.000        70.412000       0.92059400
       53500.000        70.381200       0.90549600
       54000.000        70.349200       0.89039700
       54500.000        70.316100       0.87605700
       55000.000        70.281600       0.86171800
       55500.000        70.245700       0.84805100
       56000.000        70.208000       0.83438300
       56400.000        70.176600       0.82392900
       56800.000        70.143800       0.81347500
       57200.000        70.109600       0.80340700
       57530.000        70.080100       0.79510100
       57800.000        70.055100       0.78850000
       58000.000        70.036000       0.78361100
       58300.000        70.006500       0.77644600
       58500.000        69.986000       0.77166900
       58800.000        69.954300       0.76476100
       59000.000        69.932300       0.76015600
       59300.000        69.898100       0.75324700
       59540.000        69.869500       0.74772100
       59670.000        69.853400       0.74481800
       59800.000        69.837100       0.74191500
       59900.000        69.824200       0.73970600
       59950.000        69.817700       0.73860100
       60000.000        69.811100       0.73749600
       60200.000        69.784200       0.73316200
       60400.000        69.756100       0.72882900
       60600.000        69.727000       0.72449500
       60800.000        69.696500       0.72016200
       60950.000        69.672800       0.71702200
       61100.000        69.648200       0.71388200
       61300.000        69.614000       0.70969500
       61500.000        69.578100       0.70550800
       61700.000        69.540200       0.70146200
       61900.000        69.500200       0.69741500
       62100.000        69.457800       0.69336900
       62300.000        69.412600       0.68932300
       62450.000        69.376800       0.68638900
       62600.000        69.339000       0.68345400
       62800.000        69.285300       0.67954200
       62900.000        69.256900       0.67758500
       63000.000        69.227300       0.67562900
       63100.000        69.196400       0.67373300
       63200.000        69.164100       0.67183600
       63300.000        69.130300       0.66994000
       63400.000        69.094800       0.66804400
       63480.000        69.065200       0.66652700
       63550.000        69.038200       0.66519900
       63630.000        69.006000       0.66368200
       63700.000        68.976700       0.66235500
       63770.000        68.943600       0.66106500
       63850.000        68.909600       0.65959000
       63920.000        68.876100       0.65830000
       64000.000        68.835800       0.65682600
       64080.000        68.793200       0.65535200
       64150.000        68.753800       0.65406100
       64230.000        68.706100       0.65258700
       64300.000        68.661700       0.65129700
       64380.000        68.607500       0.64987900
       64450.000        68.556700       0.64863800
       64520.000        68.502200       0.64739700
       64600.000        68.434800       0.64597900
       64630.000        68.407900       0.64544700
       64670.000        68.370500       0.64473800
       64710.000        68.331100       0.64402900
       64750.000        68.289700       0.64332000
       64790.000        68.245900       0.64261100
       64830.000        68.199500       0.64190200
       64870.000        68.150100       0.64119300
       64900.000        68.110800       0.64066100
       64940.000        68.055300       0.63995200
       64970.000        68.010900       0.63942100
       65010.000        67.947500       0.63871200
       65050.000        67.878600       0.63800300
       65070.000        67.841700       0.63764800
       65090.000        67.803000       0.63729400
       65110.000        67.762400       0.63693900
       65130.000        67.719500       0.63658500
       65150.000        67.674200       0.63623000
       65170.000        67.626200       0.63587500
       65185.000        67.588200       0.63561000
       65200.000        67.548300       0.63534400
       65220.000        67.491900       0.63498900
       65240.000        67.431200       0.63463500
       65260.000        67.365500       0.63428000
       65280.000        67.294000       0.63392600
       65295.000        67.235900       0.63366000
       65310.000        67.173300       0.63339400
       65320.000        67.128700       0.63321700
       65330.000        67.081600       0.63303900
       65340.000        67.031500       0.63286200
       65350.000        66.978200       0.63268500
       65360.000        66.921100       0.63250800
       65370.000        66.859800       0.63233000
       65380.000        66.793400       0.63215300
       65390.000        66.721300       0.63197600
       65400.000        66.642200       0.63179900
       65410.000        66.554600       0.63162100
       65415.000        66.507000       0.63153300
       65420.000        66.456600       0.63144400
       65425.000        66.402800       0.63135500
       65430.000        66.345400       0.63126700
       65435.000        66.283500       0.63117800
       65440.000        66.216800       0.63109000
       65445.000        66.144100       0.63100100
       65450.000        66.064400       0.63091200
       65455.000        65.976200       0.63082400
       65460.000        65.877400       0.63073500
       65463.000        65.812100       0.63068200
       65465.000        65.765500       0.63064600
       65468.000        65.690200       0.63059300
       65470.000        65.636000       0.63055800
       65472.000        65.578000       0.63052200
       65474.000        65.515500       0.63048700
       65476.000        65.448100       0.63045100
       65478.000        65.374800       0.63041600
       65480.000        65.294300       0.63038000
       65482.000        65.205400       0.63034500
       65483.500        65.132000       0.63031800
       65485.000        65.051300       0.63029200
       65487.000        64.930200       0.63025600
       65489.000        64.788500       0.63022100
       65490.000        64.708300       0.63020300
       65491.000        64.618700       0.63018500
       65492.000        64.519800       0.63016800
       65493.000        64.406900       0.63015000
       65494.000        64.278300       0.63013200
       65495.000        64.126500       0.63011500
       65496.000        63.944900       0.63009700
       65497.000        63.716600       0.63007900
       65498.000        63.416500       0.63006100
       65499.000        62.986400       0.63004400
       65500.000        62.272900       0.63002600
       65500.900        60.906900       0.63001000
       65501.000        61.007500        1.3285400
       65501.000        61.001300        1.3285400
       65501.100        61.194000        2.0270800
       65501.300        61.573500        3.4241400
       65501.600        62.133200        5.5197400
       65502.200        63.195800        9.7109400
       65502.800        64.167800        5.1704500
       65503.400        65.007600       0.62996800
       65503.400        64.969800       0.62996600
       65503.500        65.244200       0.62996500
       65504.700        64.580900        4.6501500
       65506.000        64.411200        1.4053100
       65506.700        63.893000        2.2207100
       65507.500        63.848600        3.4523100
       65508.300        64.173400        3.4262400
       65509.000        64.569800        3.4035500
       65509.800        64.712300        3.3780500
       65510.500        64.809400        3.3557300
       65511.200        64.888800        3.3335100
       65512.000        64.962400        3.3083400
       65512.700        65.014400        3.2866800
       65513.500        65.066800        3.2698200
       65514.200        65.106800        3.2594000
       65515.000        65.150100        3.2475500
       65515.700        65.184800        3.2371900
       65516.500        65.220800        3.2289800
       65517.300        65.254300        3.2228100
       65518.000        65.283200        3.2173500
       65518.800        65.312700        3.2125200
       65519.500        65.337700        3.2082900
       65521.000        65.387700        3.2040100
       65522.500        65.433600        3.2013400
       65524.000        65.476900        3.2018500
       65525.500        65.517900        3.2033500
       65527.000        65.557400        3.2068600
       65528.500        65.595400        3.2113400
       65530.000        65.632400        3.2158200
       65533.000        65.704500        3.2271100
       65535.000        65.751100        3.2346400
       65538.000        65.818600        3.2447100
       65540.000        65.862600        3.2514300
       65543.000        65.926400        3.2584600
       65545.000        65.967500        3.2631400
       65548.000        66.026600        3.2666100
       65550.000        66.064200        3.2689300
       65552.000        66.100900        3.2692700
       65555.000        66.152600        3.2697800
       65560.000        66.232000        3.2673200
       65565.000        66.302800        3.2633000
       65570.000        66.366200        3.2591100
       65574.000        66.412800        3.2566200
       65578.000        66.456000        3.2541300
       65582.000        66.496500        3.2532800
       65585.000        66.525700        3.2526400
       65593.000        66.599100        3.2531000
       65600.000        66.659300        3.2546500
       65608.000        66.724600        3.2562100
       65615.000        66.779100        3.2575700
       65623.000        66.837900        3.2570500
       65630.000        66.886100        3.2565900
       65635.000        66.919100        3.2553700
       65640.000        66.950300        3.2541500
       65650.000        67.008400        3.2515800
       65665.000        67.088300        3.2508200
       65680.000        67.162100        3.2500600
       65690.000        67.208200        3.2495600
       65700.000        67.252100        3.2490500
       65715.000        67.314000        3.2478700
       65730.000        67.371700        3.2466800
       65740.000        67.408100        3.2458900
       65750.000        67.443000        3.2451000
       65770.000        67.508800        3.2435200
       65800.000        67.598700        3.2411500
       65820.000        67.653800        3.2401300
       65850.000        67.730900        3.2385900
       65880.000        67.802000        3.2370500
       65900.000        67.846900        3.2360300
       65920.000        67.889700        3.2342800
       65940.000        67.930200        3.2325400
       65970.000        67.987500        3.2299200
       66010.000        68.058400        3.2264200
       66050.000        68.123700        3.2229300
       66090.000        68.184300        3.2199900
       66130.000        68.241200        3.2170500
       66170.000        68.294600        3.2141100
       66200.000        68.332400        3.2119100
       66240.000        68.380500        3.2098000
       66280.000        68.426700        3.2076800
       66310.000        68.460000        3.2060900
       66350.000        68.503000        3.2039800
       66420.000        68.573800        3.1989900
       66460.000        68.611800        3.1961300
       66500.000        68.648400        3.1932800
       66550.000        68.692300        3.1891000
       66600.000        68.734000        3.1849300
       66650.000        68.774000        3.1807500
       66700.000        68.812300        3.1765700
       66740.000        68.841400        3.1730300
       66770.000        68.862400        3.1703700
       66830.000        68.902400        3.1650600
       66890.000        68.941100        3.1608200
       66960.000        68.984400        3.1558600
       67030.000        69.025800        3.1509100
       67100.000        69.065300        3.1459600
       67170.000        69.103200        3.1414600
       67250.000        69.145000        3.1363100
       67330.000        69.185000        3.1311600
       67400.000        69.218700        3.1266600
       67470.000        69.251300        3.1223800
       67550.000        69.287400        3.1174900
       67700.000        69.352300        3.1083200
       67850.000        69.413500        3.0980100
       67920.000        69.440700        3.0932000
       68000.000        69.471100        3.0877000
       68150.000        69.525400        3.0764000
       68300.000        69.576400        3.0651000
       68400.000        69.608900        3.0575600
       68500.000        69.640400        3.0500300
       68650.000        69.685400        3.0379500
       68800.000        69.727700        3.0258600
       68900.000        69.754400        3.0178100
       69000.000        69.780000        3.0097500
       69150.000        69.816900        2.9991700
       69300.000        69.852600        2.9885800
       69400.000        69.875600        2.9815300
       69500.000        69.897800        2.9744700
       69800.000        69.961700        2.9548500
       70000.000        70.001900        2.9417700
       70300.000        70.059100        2.9231000
       70500.000        70.095500        2.9106500
       70800.000        70.147700        2.8923000
       71000.000        70.180900        2.8800700
       71300.000        70.228700        2.8617900
       71500.000        70.259400        2.8496100
       71800.000        70.303600        2.8313300
       72000.000        70.331600        2.8191500
       72200.000        70.358700        2.8070400
       72400.000        70.385000        2.7949400
       72600.000        70.410500        2.7828300
       72800.000        70.435400        2.7707200
       73000.000        70.459700        2.7586200
       73200.000        70.483300        2.7465100
       73350.000        70.500400        2.7374300
       73500.000        70.517100        2.7283500
       73900.000        70.560000        2.7041400
       74050.000        70.575600        2.6950600
       74200.000        70.590700        2.6859800
       74400.000        70.610300        2.6738700
       74600.000        70.629200        2.6617600
       74800.000        70.647600        2.6496600
       74960.000        70.661800        2.6399700
       75080.000        70.672200        2.6330700
       75200.000        70.682600        2.6261700
       75500.000        70.707700        2.6089100
       75800.000        70.731900        2.5916600
       76000.000        70.747500        2.5801600
       76300.000        70.770300        2.5635600
       76600.000        70.792200        2.5469500
       76900.000        70.813400        2.5303500
       77110.000        70.827700        2.5187300
       77500.000        70.853300        2.4983300
       77900.000        70.878300        2.4774000
       78300.000        70.902000        2.4564700
       78600.000        70.919300        2.4407800
       79000.000        70.941700        2.4209600
       79300.000        70.957900        2.4061000
       79700.000        70.978800        2.3867300
       79850.000        70.986500        2.3794700
       80000.000        70.994000        2.3722100
       80400.000        71.013500        2.3536600
       80800.000        71.032400        2.3351200
       81200.000        71.050600        2.3165700
       81500.000        71.063900        2.3026600
       81900.000        71.081000        2.2849800
       82300.000        71.097600        2.2672900
       82700.000        71.113700        2.2496100
       83000.000        71.125500        2.2363500
       83300.000        71.137000        2.2234600
       83500.000        71.144400        2.2148600
       83800.000        71.155400        2.2019700
       84000.000        71.162500        2.1933800
       84500.000        71.179800        2.1725600
       84800.000        71.189900        2.1600700
       85000.000        71.196500        2.1517400
       85400.000        71.209400        2.1356000
       85800.000        71.221800        2.1194600
       86200.000        71.233700        2.1033200
       86500.000        71.242500        2.0912100
       86900.000        71.253800        2.0757900
       87300.000        71.264800        2.0603700
       87700.000        71.275400        2.0449500
       88000.000        71.283200        2.0333900
       88300.000        71.290800        2.0222500
       88500.000        71.295700        2.0148300
       89000.000        71.307800        1.9962600
       89500.000        71.319500        1.9782300
       90000.000        71.330900        1.9602100
       90400.000        71.339900        1.9461300
       90800.000        71.348200        1.9320500
       91200.000        71.356400        1.9179700
       91500.000        71.362400        1.9074100
       91900.000        71.370200        1.8939300
       92300.000        71.377800        1.8804500
       93000.000        71.390600        1.8568600
       93500.000        71.399400        1.8404400
       94000.000        71.407800        1.8240300
       94500.000        71.415900        1.8080800
       95000.000        71.423800        1.7921200
       95800.000        71.435800        1.7671000
       96500.000        71.445600        1.7452000
       97300.000        71.456100        1.7212000
       98000.000        71.464800        1.7002000
       98500.000        71.470700        1.6856200
       99000.000        71.476400        1.6710400
       99500.000        71.481800        1.6567600
       100000.00        71.486900        1.6426700
