;  Atomic scattering factors for Ho.
;   
;  Concatenation of data from CXRO <http://www-cxro.lbl.gov>
;  and LLNL <http://www-phys.llnl.gov/V_Div/scattering/asf.html>
;  
;  E (eV) f1 f2
;---------------
       10.000000       -9999.0000       0.16762400
       10.161700       -9999.0000       0.17164200
       10.326100       -9999.0000       0.17575700
       10.493100       -9999.0000       0.17997100
       10.662800       -9999.0000       0.18428600
       10.835300       -9999.0000       0.18870400
       11.010600       -9999.0000       0.19365800
       11.188600       -9999.0000       0.20085900
       11.369600       -9999.0000       0.20832900
       11.553500       -9999.0000       0.21607600
       11.740400       -9999.0000       0.22382600
       11.930300       -9999.0000       0.23136400
       12.123200       -9999.0000       0.23915600
       12.319300       -9999.0000       0.24721000
       12.518600       -9999.0000       0.25585600
       12.721000       -9999.0000       0.26503300
       12.926800       -9999.0000       0.27453800
       13.135900       -9999.0000       0.28421100
       13.348300       -9999.0000       0.29358200
       13.564200       -9999.0000       0.30326200
       13.783600       -9999.0000       0.31326100
       14.006600       -9999.0000       0.32358900
       14.233100       -9999.0000       0.33337500
       14.463300       -9999.0000       0.34329800
       14.697300       -9999.0000       0.35351700
       14.935000       -9999.0000       0.36435300
       15.176500       -9999.0000       0.37593600
       15.422000       -9999.0000       0.38788600
       15.671400       -9999.0000       0.40003100
       15.924900       -9999.0000       0.40858400
       16.182500       -9999.0000       0.41732000
       16.444200       -9999.0000       0.42624300
       16.710200       -9999.0000       0.43747700
       16.980500       -9999.0000       0.45518400
       17.255100       -9999.0000       0.47360800
       17.534200       -9999.0000       0.48686400
       17.817800       -9999.0000       0.49900400
       18.106000       -9999.0000       0.51144500
       18.398900       -9999.0000       0.52422900
       18.696400       -9999.0000       0.53838800
       18.998800       -9999.0000       0.55292900
       19.306100       -9999.0000       0.56786200
       19.618400       -9999.0000       0.58404800
       19.935700       -9999.0000       0.60070600
       20.258200       -9999.0000       0.61783900
       20.585800       -9999.0000       0.63891900
       20.918800       -9999.0000       0.66173500
       21.257100       -9999.0000       0.68536600
       21.600900       -9999.0000       0.71322900
       21.950300       -9999.0000       0.74803900
       22.305300       -9999.0000       0.79068900
       22.666100       -9999.0000       0.88185800
       23.032700       -9999.0000       0.97066000
       23.405300       -9999.0000        1.0611800
       23.783800       -9999.0000        1.3072700
       24.168500       -9999.0000        1.4495200
       24.559400       -9999.0000        1.6129500
       24.956600       -9999.0000        1.8682000
       25.360300       -9999.0000        2.2800800
       25.770500       -9999.0000        2.5652600
       26.187300       -9999.0000        2.9731300
       26.610900       -9999.0000        3.4704100
       27.041300       -9999.0000        4.0077100
       27.478600       -9999.0000        4.5797200
       27.923100       -9999.0000        5.1355300
       28.374700       -9999.0000        5.6540300
       28.833700       -9999.0000        6.1934900
       29.300000       -3.1296000        6.7849000
       29.773900       -3.1439200        7.4582200
       30.255500       -3.0775700        8.1983600
       30.744900       -2.8677300        9.0119400
       31.242100       -2.5228600        9.7126800
       31.747500       -2.0976100        10.442000
       32.260900       -1.4157700        11.039900
       32.782700      -0.85638800        11.451500
       33.313000      -0.29377400        11.878500
       33.851800       0.30662100        12.179500
       34.399300       0.87240900        12.460200
       34.955700        1.4919200        12.698400
       35.521100        2.0792300        12.856000
       36.095600        2.6993000        13.015500
       36.679400        3.3157500        12.981800
       37.272700        3.8292700        12.932200
       37.875500        4.2905000        12.882800
       38.488200        4.7273400        12.833500
       39.110700        5.1567000        12.784400
       39.743200        5.6125600        12.690100
       40.386100        5.9977900        12.544200
       41.039300        6.3407700        12.399900
       41.703100        6.6544300        12.257200
       42.377600        6.9449200        12.116300
       43.063000        7.2165800        11.976900
       43.759500        7.4720100        11.835100
       44.467300        7.7080500        11.692800
       45.186500        7.9277400        11.552300
       45.917400        8.1327300        11.413500
       46.660000        8.3241100        11.276400
       47.414700        8.5026200        11.140900
       48.181600        8.6687700        11.007000
       48.960900        8.8227400        10.874700
       49.752800        8.9637800        10.744000
       50.557600        9.0887700        10.614900
       51.375300        9.2040900        10.502500
       52.206200        9.3170300        10.392500
       53.050600        9.4238900        10.283600
       53.908700        9.5233300        10.175900
       54.780600        9.6144900        10.069300
       55.666700        9.6964000        9.9638200
       56.567000        9.7675200        9.8594600
       57.482000        9.8243100        9.7561800
       58.411700        9.8544000        9.6593600
       59.356400        9.8862300        9.6072000
       60.316500        9.9293500        9.5553200
       61.292100        9.9759200        9.5037300
       62.283400        10.021200        9.4524100
       63.290800        10.063400        9.4013800
       64.314500        10.100700        9.3506200
       65.354700        10.131200        9.3001300
       66.411800        10.148800        9.2499200
       67.485900        10.134800        9.2158000
       68.577500        10.139300        9.2200800
       69.686700        10.159500        9.2243400
       70.813800        10.184600        9.2286200
       71.959100        10.212200        9.2328900
       73.123000        10.240600        9.2371700
       74.305700        10.268400        9.2414600
       75.507600        10.294500        9.2457400
       76.728900        10.317500        9.2500300
       77.969900        10.335400        9.2543100
       79.231000        10.343900        9.2586100
       80.512500        10.328100        9.2736800
       81.814700        10.325800        9.3291700
       83.138000        10.338800        9.3850100
       84.482700        10.360400        9.4411700
       85.849100        10.387100        9.4976700
       87.237700        10.417600        9.5545100
       88.648700        10.451000        9.6116900
       90.082500        10.486900        9.6692100
       91.539500        10.525000        9.7270800
       93.020100        10.565100        9.7852900
       94.524600        10.607200        9.8438500
       96.053500        10.651500        9.9027600
       97.607100        10.698800        9.9620200
       99.185800        10.750900        10.021600
       100.79000        10.815300        10.081600
       102.42000        10.881700        10.109800
       104.07700        10.932600        10.133300
       105.76000        10.972600        10.156900
       107.47100        11.006300        10.180500
       109.20900        11.034600        10.204100
       110.97500        11.058700        10.227800
       112.77000        11.080600        10.251600
       114.59400        11.108100        10.269100
       116.44800        11.120800        10.268600
       118.33100        11.121300        10.268100
       120.24500        11.114700        10.267600
       122.19000        11.112600        10.267100
       124.16600        11.176600        10.250000
       126.17500        11.169600        10.064200
       128.21500        11.053500        9.8818300
       130.28900        10.864500        9.7027500
       132.39700        10.615900        9.5269100
       134.53800        10.284300        9.3195600
       136.71400        9.8448000        9.1135200
       138.92500        9.2961400        8.9120300
       141.17200        8.6841100        8.7150100
       143.45600        7.8448500        8.2421800
       145.77600        6.4258800        7.7045200
       148.13400        4.4073400        7.3042600
       150.53000        1.6172000        6.9249400
       152.96400       -3.8824500        6.3194300
       155.43900       -26.349700        11.401500
       157.95300       -5.6644100        49.422800
       160.50700        12.198700        41.023600
       163.10300        18.919700        33.011100
       165.74200        19.102900        26.582600
       168.42200        18.594200        25.196300
       171.14600        18.962300        23.882400
       173.91500        19.273700        22.637000
       176.72700        19.091700        21.545400
       179.58600        19.039300        21.214100
       182.49100        19.231000        20.887900
       185.44200        19.473100        20.566800
       188.44200        19.722500        20.250600
       191.48900        19.957500        19.939200
       194.58700        20.161500        19.632700
       197.73400        20.302800        19.330800
       200.93200        20.339900        19.153100
       204.18200        20.460300        19.085300
       207.48500        20.647000        19.017800
       210.84000        20.852900        18.950400
       214.25100        21.071700        18.883400
       217.71600        21.299500        18.816500
       221.23700        21.534700        18.749900
       224.81600        21.777700        18.683500
       228.45200        22.032000        18.617400
       232.14700        22.319200        18.550200
       235.90200        22.591100        18.401400
       239.71700        22.830000        18.253800
       243.59500        23.043400        18.107400
       247.53500        23.238900        17.962100
       251.53800        23.416500        17.818000
       255.60700        23.574100        17.675100
       259.74100        23.703200        17.533300
       263.94200        23.773400        17.424900
       268.21100        23.878400        17.384700
       272.54900        24.004600        17.344500
       276.95700        24.138300        17.304400
       281.43700        24.274300        17.264500
       285.98900        24.408900        17.224600
       290.61500        24.538700        17.184800
       295.31500        24.641000        17.145000
       300.09200        24.751000        17.160000
       304.94500        24.884100        17.175900
       309.87800        25.027600        17.191800
       314.89000        25.177700        17.207800
       319.98300        25.332300        17.223700
       325.15800        25.489900        17.239700
       330.41800        25.649100        17.255700
       335.76200        25.802500        17.271700
       341.19200        25.956500        17.305200
       346.71100        26.124200        17.345900
       352.31900        26.301400        17.386700
       358.01700        26.485800        17.427600
       363.80800        26.676800        17.468600
       369.69200        26.874400        17.509600
       375.67200        27.078900        17.550800
       381.74800        27.291100        17.592100
       387.92200        27.512300        17.633500
       394.19700        27.760100        17.673600
       400.57300        28.005200        17.675700
       407.05200        28.238200        17.677800
       413.63500        28.469000        17.679900
       420.32600        28.700000        17.682000
       427.12400        28.933000        17.684100
       434.03200        29.169300        17.686300
       441.05200        29.411200        17.688400
       448.18600        29.662000        17.690500
       455.43500        29.936400        17.692600
       462.80200        30.211200        17.644700
       470.28700        30.469200        17.590400
       477.89400        30.714800        17.536200
       485.62300        30.955900        17.482200
       493.47800        31.194900        17.428400
       501.45900        31.433500        17.374700
       509.57000        31.673400        17.321300
       517.81200        31.917000        17.268000
       526.18700        32.167200        17.214800
       534.69800        32.427300        17.161800
       543.34600        32.746200        17.109000
       552.13400        33.055500        16.948800
       561.06500        33.309500        16.775300
       570.13900        33.535400        16.603500
       579.36100        33.742300        16.433500
       588.73200        33.934300        16.265200
       598.25400        34.113800        16.098700
       607.93000        34.282300        15.933900
       617.76300        34.440800        15.770700
       627.75500        34.589400        15.609200
       637.90800        34.734800        15.453600
       648.22600        34.876200        15.289100
       658.71100        35.000300        15.117800
       669.36500        35.104300        14.948600
       680.19100        35.191000        14.803300
       691.19300        35.285700        14.676100
       702.37200        35.404800        14.551000
       713.73300        35.530200        14.396500
       725.27700        35.630700        14.222700
       737.00800        35.713000        14.051100
       748.92800        35.782800        13.881600
       761.04200        35.842400        13.713900
       773.35100        35.893500        13.546700
       785.85900        35.935100        13.376600
       798.57000        35.962200        13.204800
       811.48600        35.976100        13.035300
       824.61100        35.978200        12.867800
       837.94900        35.968700        12.702300
       851.50200        35.947400        12.537900
       865.27400        35.913900        12.374100
       879.26900        35.866200        12.211300
       893.49100        35.804400        12.050500
       907.94300        35.728600        11.891800
       922.62800        35.640900        11.735400
       937.55100        35.536300        11.572700
       952.71500        35.411700        11.410200
       968.12400        35.264400        11.248100
       983.78300        35.094500        11.088100
       999.69500        34.901600        10.929400
       1015.8600        34.685500        10.771900
       1032.2900        34.437600        10.606100
       1048.9900        34.152900        10.440800
       1065.9600        33.826000        10.276100
       1083.2000        33.453100        10.113600
       1100.7200        33.028600        9.9539200
       1118.5200        32.545000        9.7968700
       1136.6100        31.992000        9.6420500
       1155.0000        31.356000        9.4897200
       1173.6800        30.619200        9.3398700
       1192.6600        29.756100        9.1922000
       1211.9500        28.731000        9.0469900
       1231.5500        27.490300        8.9043000
       1251.4700        25.948900        8.7641600
       1271.7200        23.959700        8.6266800
       1292.2900        21.235400        8.4919000
       1313.1900        17.087100        8.3595700
       1334.4300        8.9827100        8.2293400
       1351.3000       -46.147000        8.1287600
       1351.5000       -46.124000        42.387800
       1356.0100       -4.0458000        42.184700
       1377.9400        15.902700        41.220100
       1400.2300        23.118700        40.277500
       1422.8800        27.689700        39.356500
       1445.8900        31.039700        38.456400
       1469.2800        33.668500        37.577400
       1493.0400        35.812200        36.719400
       1517.1900        37.601300        35.882400
       1541.7300        39.113900        35.064700
       1566.6700        40.397700        34.265400
       1592.0100        41.482100        33.484800
       1617.7600        42.381200        32.721900
       1643.9200        43.091000        31.975900
       1670.5100        43.579600        31.247100
       1697.5300        43.740900        30.535300
       1724.9900        42.971800        29.840200
       1741.1000        36.196900        29.444600
       1741.3000        36.218600        34.202000
       1752.8900        43.358000        33.888100
       1781.2400        45.869400        33.140600
       1810.0500        47.245400        32.409500
       1839.3200        48.231600        31.695200
       1869.0700        48.946200        30.996700
       1899.3000        49.240400        30.313600
       1922.7000        46.867900        29.802500
       1922.9000        46.888000        31.854000
       1930.0200        49.363600        31.687000
       1961.2400        51.100400        30.972600
       1992.9600        52.084900        30.274300
       2025.2000        52.842800        29.598000
       2057.9500        53.443700        28.931200
       2091.2400        53.862100        28.278600
       2125.0600        53.548000        27.641400
       2128.2000        52.323300        27.583600
       2128.4000        52.326100        28.731200
       2159.4300        54.900100        28.197500
       2194.3600        55.674900        27.617500
       2229.8500        56.301600        27.045300
       2265.9200        56.851700        26.481200
       2302.5700        57.349300        25.925900
       2339.8100        57.805100        25.377500
       2377.6600        58.224400        24.837300
       2416.1100        58.612900        24.306200
       2455.1900        58.973600        23.782700
       2494.9000        59.309100        23.268200
       2535.2600        59.621200        22.761800
       2576.2600        59.912300        22.264200
       2617.9300        60.183000        21.774600
       2660.2700        60.435700        21.294500
       2703.3000        60.670800        20.821300
       2747.0300        60.889200        20.357500
       2791.4600        61.091900        19.902100
       2836.6100        61.281700        19.456700
       2882.4900        61.456600        19.015900
       2929.1100        61.617600        18.586200
       2976.4800        61.767800        18.164700
       3024.6300        61.906300        17.750600
       3073.5500        62.033600        17.345200
       3123.2600        62.150300        16.947300
       3173.7800        62.257500        16.558300
       3225.1100        62.355500        16.175900
       3277.2700        62.443300        15.801400
       3330.2800        62.523000        15.435900
       3384.1500        62.595100        15.077000
       3438.8800        62.659000        14.725800
       3494.5000        62.715500        14.382300
       3551.0200        62.765600        14.046600
       3608.4600        62.809200        13.716600
       3666.8200        62.845700        13.394000
       3726.1300        62.875900        13.078500
       3786.4000        62.900400        12.769900
       3847.6400        62.919100        12.468000
       3909.8700        62.932500        12.172800
       3973.1100        62.940600        11.884100
       4037.3800        62.943700        11.601700
       4102.6800        62.941900        11.325600
       4169.0300        62.935500        11.055700
       4236.4600        62.924600        10.791800
       4304.9800        62.909200        10.533800
       4374.6200        62.889500        10.281600
       4445.3700        62.865500        10.035100
       4517.2700        62.837400        9.7942200
       4590.3300        62.805500        9.5589700
       4664.5800        62.769500        9.3287100
       4740.0300        62.729300        9.1039100
       4816.6900        62.685400        8.8844700
       4894.6000        62.637700        8.6698400
       4973.7700        62.585900        8.4600200
       5054.2100        62.530100        8.2552800
       5135.9600        62.470200        8.0551000
       5219.0300        62.406100        7.8598000
       5303.4400        62.338000        7.6688800
       5389.2200        62.265400        7.4822500
       5476.3900        62.188000        7.3001300
       5564.9700        62.105900        7.1223700
       5654.9800        62.018900        6.9487500
       5746.4400        61.926600        6.7790000
       5839.3900        61.828200        6.6131100
       5933.8300        61.723400        6.4512300
       6029.8100        61.612100        6.2934800
       6127.3300        61.493500        6.1390700
       6226.4400        61.366400        5.9882900
       6327.1500        61.230200        5.8411900
       6429.4800        61.083600        5.6973700
       6533.4800        60.925000        5.5571200
       6639.1500        60.753100        5.4201600
       6746.5400        60.565300        5.2862800
       6855.6500        60.358700        5.1557100
       6966.5400        60.129700        5.0284200
       7079.2200        59.873100        4.9036100
       7193.7200        59.581700        4.7822000
       7310.0700        59.245600        4.6634200
       7428.3100        58.848600        4.5472400
       7548.4500        58.365100        4.4342600
       7670.5400        57.748400        4.3237700
       7794.6100        56.896600        4.2156000
       7920.6800        55.511100        4.1101400
       8048.7900        51.193400        4.0076100
       8071.0000        38.840000        3.9902600
       8071.2000        38.840900        11.188300
       8178.9800        54.889000        10.913400
       8311.2600        56.627600        10.590000
       8445.6900        57.436800        10.275700
       8582.2900        57.798300        9.9710600
       8721.1100        57.745600        9.6752100
       8862.1600        56.730400        9.3882700
       8917.7000        49.583000        9.2788500
       8917.9000        49.585100        12.949700
       9005.5000        57.630300        12.710500
       9151.1600        58.931300        12.327300
       9299.1700        59.328100        11.955400
       9394.1000        56.060100        11.725700
       9394.3000        56.060800        13.416600
       9449.5800        59.676900        13.303100
       9602.4200        60.919900        12.997700
       9757.7300        61.674300        12.697900
       9915.5500        62.264000        12.403400
       10075.900        62.757500        12.112900
       10238.900        63.182700        11.827300
       10404.500        63.556400        11.546500
       10572.800        63.888600        11.270600
       10743.800        64.186400        10.999700
       10917.600        64.455100        10.733700
       11094.200        64.698500        10.472600
       11273.600        64.919800        10.216500
       11455.900        65.121500        9.9653500
       11641.200        65.305600        9.7191300
       11829.500        65.474000        9.4778100
       12020.800        65.628100        9.2413800
       12215.300        65.769100        9.0097900
       12412.800        65.898300        8.7830300
       12613.600        66.016500        8.5610400
       12817.600        66.124700        8.3437800
       13025.000        66.223600        8.1312000
       13235.600        66.313900        7.9232600
       13449.700        66.396200        7.7199000
       13667.200        66.471200        7.5210500
       13888.300        66.539300        7.3266800
       14112.900        66.601000        7.1367000
       14341.200        66.656800        6.9510700
       14573.100        66.707000        6.7697100
       14808.900        66.752000        6.5925700
       15048.400        66.792100        6.4195600
       15291.800        66.827700        6.2506400
       15539.100        66.859100        6.0857300
       15790.400        66.886500        5.9247500
       16045.800        66.910200        5.7676500
       16305.400        66.930400        5.6143500
       16569.100        66.947400        5.4647800
       16837.100        66.961300        5.3188700
       17109.400        66.972300        5.1765600
       17386.100        66.980700        5.0377600
       17667.400        66.986600        4.9024200
       17953.100        66.990100        4.7704700
       18243.500        66.991400        4.6418200
       18538.600        66.990700        4.5164300
       18838.400        66.988100        4.3942100
       19143.100        66.983600        4.2751000
       19452.700        66.977500        4.1590400
       19767.400        66.969800        4.0459500
       20087.100        66.960600        3.9357800
       20412.000        66.950100        3.8284500
       20742.100        66.938300        3.7239200
       21077.600        66.925300        3.6220900
       21418.500        66.911100        3.5229400
       21765.000        66.896000        3.4263800
       22117.000        66.879800        3.3323600
       22474.700        66.862700        3.2408200
       22838.200        66.844800        3.1516900
       23207.600        66.826200        3.0649400
       23583.000        66.806700        2.9804800
       23964.400        66.786600        2.8982900
       24352.000        66.765800        2.8182800
       24745.900        66.744500        2.7404200
       25146.200        66.722600        2.6646500
       25552.900        66.700100        2.5909200
       25966.200        66.677200        2.5191800
       26386.100        66.653800        2.4493800
       26812.900        66.629900        2.3814700
       27246.600        66.605700        2.3154100
       27687.300        66.581000        2.2511400
       28135.100        66.556000        2.1886200
       28590.200        66.530700        2.1278000
       29052.600        66.505500        2.0686500
       29522.500        66.485200        2.0111200
       30000.000        66.435500        1.9551700
       30400.000        66.324400        1.8183500
       30700.000        66.308900        1.7870900
       31000.000        66.293300        1.7566600
       31300.000        66.277800        1.7270300
       31900.000        66.246800        1.6700800
       32200.000        66.231300        1.6427000
       32535.800        66.213900        1.6128800
       32900.000        66.195100        1.5814800
       33300.000        66.174400        1.5480400
       33600.000        66.158900        1.5236600
       34000.000        66.138300        1.4920900
       34500.000        66.112400        1.4540400
       35000.000        66.086600        1.4174800
       35500.000        66.060600        1.3821600
       36030.000        66.033000        1.3461900
       36500.000        66.008300        1.3155100
       37000.000        65.982000        1.2840500
       37500.000        65.955300        1.2537400
       38000.000        65.928700        1.2245400
       38500.000        65.901500        1.1963900
       39000.000        65.874400        1.1692400
       39500.000        65.846800        1.1430400
       40000.000        65.818900        1.1177400
       40800.000        65.773300        1.0788100
       41500.000        65.732300        1.0464500
       42300.000        65.683900        1.0112800
       43000.000        65.640000       0.98200000
       43400.000        65.614200       0.96606100
       43800.000        65.587800       0.95012200
       44100.000        65.567500       0.93872600
       44500.000        65.539900       0.92353100
       44900.000        65.511600       0.90901000
       45300.000        65.482400       0.89448800
       45600.000        65.459900       0.88406000
       46000.000        65.429000       0.87015500
       46500.000        65.388800       0.85340000
       47000.000        65.346600       0.83714100
       47500.000        65.302200       0.82135900
       47800.000        65.274300       0.81216500
       48000.000        65.255100       0.80603500
       48300.000        65.225500       0.79710500
       48500.000        65.205100       0.79115100
       48800.000        65.173500       0.78247500
       49000.000        65.151700       0.77669100
       49300.000        65.117700       0.76825900
       49500.000        65.094200       0.76263800
       49800.000        65.057400       0.75444100
       50000.000        65.031900       0.74897600
       50200.000        65.005400       0.74368700
       50400.000        64.977900       0.73839800
       50600.000        64.949400       0.73310800
       50800.000        64.919700       0.72781900
       50950.000        64.896500       0.72401300
       51100.000        64.872600       0.72020800
       51300.000        64.839500       0.71513300
       51500.000        64.804800       0.71005900
       51700.000        64.768300       0.70518700
       51900.000        64.729800       0.70031600
       52100.000        64.689200       0.69544400
       52300.000        64.646100       0.69057300
       52450.000        64.612000       0.68706300
       52600.000        64.576200       0.68355400
       52800.000        64.525600       0.67887400
       53000.000        64.471100       0.67419500
       53100.000        64.442300       0.67193300
       53200.000        64.412200       0.66967200
       53300.000        64.380900       0.66741000
       53400.000        64.348200       0.66514900
       53550.000        64.296100       0.66175600
       53630.000        64.266800       0.65994700
       53700.000        64.240100       0.65836400
       53800.000        64.200300       0.65618400
       53900.000        64.158100       0.65400300
       54000.000        64.113500       0.65182300
       54100.000        64.066000       0.64964300
       54180.000        64.025700       0.64789900
       54250.000        63.988600       0.64637200
       54330.000        63.943800       0.64462800
       54400.000        63.902400       0.64310200
       54450.000        63.871300       0.64205100
       54500.000        63.838900       0.64099900
       54550.000        63.805000       0.63994800
       54600.000        63.769600       0.63889600
       54650.000        63.732500       0.63784500
       54700.000        63.693600       0.63679300
       54750.000        63.652500       0.63574200
       54800.000        63.609100       0.63469100
       54830.000        63.581900       0.63406000
       54870.000        63.544100       0.63321900
       54910.000        63.504300       0.63237700
       54950.000        63.462400       0.63153600
       54980.000        63.429400       0.63090500
       55020.000        63.383200       0.63006400
       55060.000        63.334200       0.62922300
       55100.000        63.281900       0.62838200
       55140.000        63.225900       0.62756800
       55180.000        63.165700       0.62675500
       55220.000        63.100600       0.62594100
       55250.000        63.048100       0.62533100
       55270.000        63.011100       0.62492400
       55290.000        62.972300       0.62451800
       55310.000        62.931600       0.62411100
       55330.000        62.888700       0.62370400
       55345.000        62.854900       0.62339900
       55360.000        62.819800       0.62309400
       55380.000        62.770400       0.62268700
       55400.000        62.717800       0.62228100
       55420.000        62.661600       0.62187400
       55440.000        62.601300       0.62146700
       55460.000        62.536300       0.62106000
       55480.000        62.465700       0.62065300
       55495.000        62.408400       0.62034800
       55510.000        62.347000       0.62004300
       55520.000        62.303300       0.61984000
       55530.000        62.257200       0.61963700
       55540.000        62.208500       0.61943300
       55550.000        62.156700       0.61923000
       55560.000        62.101400       0.61902600
       55570.000        62.042400       0.61882300
       55580.000        61.978700       0.61862000
       55590.000        61.909900       0.61841600
       55600.000        61.835000       0.61821300
       55610.000        61.752700       0.61800900
       55620.000        61.661500       0.61780600
       55625.000        61.611900       0.61770400
       55630.000        61.559300       0.61760300
       55635.000        61.503100       0.61750100
       55640.000        61.443000       0.61739900
       55645.000        61.378200       0.61729800
       55650.000        61.308200       0.61719600
       55655.000        61.231800       0.61709400
       55660.000        61.147800       0.61699300
       55665.000        61.054700       0.61689100
       55667.000        61.014300       0.61685000
       55670.000        60.950200       0.61678900
       55673.000        60.880500       0.61672800
       55675.000        60.830800       0.61668800
       55678.000        60.750300       0.61662600
       55680.000        60.692000       0.61658600
       55683.000        60.596500       0.61652500
       55685.000        60.526300       0.61648400
       55688.000        60.408700       0.61642300
       55690.000        60.320500       0.61638200
       55693.000        60.167800       0.61632100
       55694.000        60.110200       0.61630100
       55695.000        60.048300       0.61628100
       55696.500        59.946700       0.61625000
       55698.000        59.830800       0.61622000
       55699.000        59.744300       0.61619900
       55700.000        59.647500       0.61617900
       55700.800        59.561800       0.61616300
       55701.500        59.478800       0.61614900
       55702.300        59.373400       0.61613200
       55703.000        59.268700       0.61611800
       55704.000        59.094800       0.61609800
       55705.000        58.877600       0.61607700
       55706.000        58.593200       0.61605700
       55707.000        58.183800       0.61603700
       55708.000        57.501100       0.61601600
       55709.000        55.880600       0.61599600
       55709.000        55.874100       0.61599600
       55709.100        56.026700        1.4691700
       55709.200        56.271100        2.3223400
       55709.300        56.500200        3.1755200
       55709.600        57.203900        5.7350300
       55710.100        58.332300        10.000900
       55710.600        59.410200        4.7870400
       55711.000        60.122200       0.61595600
       55711.100        60.374800       0.61595400
       55711.200        60.624900       0.61595100
       55712.100        59.387600        2.7267100
       55713.200        58.770200        1.7682300
       55713.900        58.570500        2.8975600
       55714.600        58.749900        3.3606200
       55715.300        59.259500        3.3556200
       55716.000        59.423900        3.3505600
       55716.500        59.511700        3.3470000
       55717.000        59.587800        3.3434500
       55718.000        59.715400        3.3362900
       55719.000        59.819700        3.3290900
       55720.000        59.910200        3.3218800
       55721.000        59.988400        3.3147000
       55722.000        60.058300        3.3075200
       55723.000        60.120100        3.3035200
       55724.000        60.178000        3.2995300
       55725.000        60.230500        3.2955500
       55726.000        60.278700        3.2915700
       55727.000        60.323000        3.2907700
       55728.000        60.366100        3.2899600
       55729.000        60.406100        3.2891600
       55730.000        60.443500        3.2883500
       55731.500        60.496600        3.2908000
       55733.000        60.547700        3.2932400
       55735.000        60.611100        3.2965100
       55738.000        60.699100        3.3046700
       55740.000        60.754700        3.3101100
       55743.000        60.833600        3.3178900
       55745.000        60.884100        3.3230700
       55748.000        60.956000        3.3283300
       55750.000        61.002100        3.3318400
       55753.000        61.067700        3.3340200
       55755.000        61.109400        3.3354700
       55758.000        61.168700        3.3350100
       55760.000        61.206100        3.3347000
       55763.000        61.259000        3.3325400
       55765.000        61.292300        3.3311000
       55770.000        61.368900        3.3263100
       55775.000        61.437700        3.3222600
       55780.000        61.500000        3.3182000
       55785.000        61.557300        3.3163400
       55790.000        61.610500        3.3144700
       55794.000        61.650700        3.3145100
       55798.000        61.689500        3.3145500
       55805.000        61.754300        3.3156500
       55813.000        61.824000        3.3163900
       55820.000        61.881700        3.3170400
       55830.000        61.958300        3.3153100
       55840.000        62.028000        3.3135800
       55850.000        62.092100        3.3116100
       55860.000        62.150800        3.3096500
       55870.000        62.205700        3.3095200
       55880.000        62.258000        3.3093800
       55890.000        62.307800        3.3092400
       55900.000        62.355300        3.3091100
       55915.000        62.422200        3.3077600
       55930.000        62.484100        3.3064000
       55950.000        62.560400        3.3048700
       55970.000        62.630900        3.3033400
       55985.000        62.680400        3.3022000
       56000.000        62.727500        3.3010500
       56020.000        62.786600        3.2991600
       56050.000        62.868500        3.2963300
       56070.000        62.919200        3.2944300
       56100.000        62.990200        3.2916000
       56120.000        63.034600        3.2898600
       56150.000        63.097100        3.2872400
       56170.000        63.136500        3.2855000
       56200.000        63.192800        3.2828800
       56230.000        63.245900        3.2804500
       56250.000        63.279700        3.2788300
       56270.000        63.312300        3.2772000
       56300.000        63.359200        3.2747700
       56350.000        63.432500        3.2707100
       56400.000        63.500500        3.2666600
       56450.000        63.563900        3.2625900
       56500.000        63.623400        3.2585200
       56550.000        63.679500        3.2544400
       56600.000        63.732900        3.2503700
       56640.000        63.773600        3.2464000
       56680.000        63.812300        3.2424200
       56720.000        63.849300        3.2384500
       56750.000        63.876100        3.2354700
       56830.000        63.943600        3.2275200
       56900.000        63.998300        3.2205600
       56950.000        64.035200        3.2166300
       57000.000        64.071200        3.2127000
       57100.000        64.139500        3.2048400
       57200.000        64.203300        3.1972300
       57300.000        64.263400        3.1896200
       57410.000        64.325900        3.1813800
       57530.000        64.390700        3.1724000
       57660.000        64.456300        3.1613100
       57800.000        64.522700        3.1493700
       57900.000        64.567800        3.1408400
       58000.000        64.611000        3.1323100
       58070.000        64.640100        3.1255900
       58150.000        64.671700        3.1179000
       58220.000        64.698200        3.1111800
       58300.000        64.727200        3.1034900
       58400.000        64.762000        3.0938900
       58500.000        64.795800        3.0842800
       58650.000        64.844300        3.0711200
       58800.000        64.890200        3.0579600
       58900.000        64.919400        3.0491800
       59000.000        64.947500        3.0404100
       59150.000        64.988000        3.0284800
       59300.000        65.027000        3.0165500
       59420.000        65.057000        3.0070000
       59540.000        65.085800        2.9974600
       59600.000        65.099900        2.9929900
       59670.000        65.116300        2.9877800
       59800.000        65.145900        2.9781100
       59900.000        65.168100        2.9707400
       59950.000        65.179000        2.9670500
       60000.000        65.189900        2.9633600
       60200.000        65.232000        2.9487300
       60400.000        65.272300        2.9341000
       60600.000        65.311100        2.9194600
       60800.000        65.348500        2.9048300
       60950.000        65.375700        2.8938600
       61100.000        65.402600        2.8828800
       61300.000        65.436600        2.8682500
       61500.000        65.469300        2.8536200
       61700.000        65.500700        2.8388000
       61900.000        65.531000        2.8239800
       62100.000        65.560600        2.8091700
       62300.000        65.588800        2.7943500
       62450.000        65.609300        2.7833000
       62600.000        65.629100        2.7722400
       62800.000        65.654800        2.7575100
       63000.000        65.679600        2.7427700
       63300.000        65.715200        2.7213000
       63500.000        65.738100        2.7069900
       63800.000        65.771000        2.6855200
       64000.000        65.792000        2.6712100
       64300.000        65.822200        2.6504900
       64500.000        65.841600        2.6366700
       64800.000        65.869400        2.6159500
       65000.000        65.887100        2.6021300
       65300.000        65.912700        2.5828400
       65500.000        65.929400        2.5699900
       65700.000        65.945700        2.5571300
       65900.000        65.961600        2.5442700
       66200.000        65.984700        2.5256800
       66400.000        65.999600        2.5132800
       66600.000        66.014100        2.5008900
       66830.000        66.030400        2.4866300
       66960.000        66.039500        2.4788100
       67100.000        66.049000        2.4703900
       67400.000        66.068900        2.4523400
       67700.000        66.088100        2.4347000
       68000.000        66.106500        2.4170600
       68300.000        66.124200        2.4002700
       68500.000        66.135900        2.3890700
       68800.000        66.152900        2.3722800
       69000.000        66.163900        2.3610800
       69300.000        66.180100        2.3449100
       69500.000        66.190600        2.3341300
       69800.000        66.206100        2.3179600
       70000.000        66.216100        2.3071800
       70300.000        66.230900        2.2914400
       70500.000        66.240400        2.2809500
       70800.000        66.254400        2.2652200
       71000.000        66.263400        2.2547300
       71300.000        66.276700        2.2395600
       71500.000        66.285300        2.2294500
       71800.000        66.298000        2.2142900
       72000.000        66.306200        2.2041800
       72400.000        66.322200        2.1847600
       72800.000        66.337700        2.1653400
       73200.000        66.352800        2.1459200
       73500.000        66.363600        2.1313600
       73900.000        66.377600        2.1127600
       74200.000        66.387700        2.0988100
       74600.000        66.400700        2.0802100
       74960.000        66.412100        2.0634700
       75200.000        66.419400        2.0526500
       75500.000        66.428400        2.0391200
       75800.000        66.437100        2.0258300
       76000.000        66.442800        2.0169700
       76300.000        66.451100        2.0040500
       76600.000        66.459200        1.9911200
       76900.000        66.467200        1.9782000
       77110.000        66.472600        1.9691500
       77500.000        66.482400        1.9530000
       77900.000        66.492200        1.9364400
       78300.000        66.501700        1.9198800
       78600.000        66.508600        1.9074600
       79000.000        66.517400        1.8913900
       79300.000        66.523800        1.8793400
       79700.000        66.532200        1.8636400
       80000.000        66.538300        1.8518700
       80400.000        66.546100        1.8366000
       80800.000        66.553700        1.8213400
       81200.000        66.561000        1.8060700
       81500.000        66.566300        1.7946200
       82300.000        66.579700        1.7655600
       83000.000        66.590900        1.7401400
       83500.000        66.598400        1.7224600
       84000.000        66.605600        1.7047800
       84500.000        66.612400        1.6876600
       85000.000        66.618800        1.6705500
       85800.000        66.628600        1.6442500
       86500.000        66.636500        1.6212400
       87300.000        66.645000        1.5961500
       88000.000        66.651900        1.5741900
       88500.000        66.656500        1.5591000
       89000.000        66.661000        1.5440200
       90000.000        66.669200        1.5147500
       90800.000        66.675200        1.4924200
       91500.000        66.680200        1.4728900
       92300.000        66.685600        1.4515400
       93000.000        66.690100        1.4328500
       94000.000        66.696000        1.4071100
       95000.000        66.701500        1.3820900
       96500.000        66.708900        1.3457400
       98000.000        66.715400        1.3108900
       99000.000        66.719300        1.2882600
       99500.000        66.721200        1.2772600
       100000.00        66.722900        1.2662500
