;  Atomic scattering factors for I.
;   
;  Concatenation of data from CXRO <http://www-cxro.lbl.gov>
;  and LLNL <http://www-phys.llnl.gov/V_Div/scattering/asf.html>
;  
;  E (eV) f1 f2
;---------------
       10.000000       -9999.0000        7.8167000
       10.161700       -9999.0000        7.5678100
       10.326100       -9999.0000        7.3268500
       10.493100       -9999.0000        7.0808100
       10.662800       -9999.0000        6.8332000
       10.835300       -9999.0000        6.7843500
       11.010600       -9999.0000        6.8088800
       11.188600       -9999.0000        7.2733400
       11.369600       -9999.0000        7.8677500
       11.553500       -9999.0000        8.5278600
       11.740400       -9999.0000        9.2433500
       11.930300       -9999.0000        10.009200
       12.123200       -9999.0000        10.789600
       12.319300       -9999.0000        11.062300
       12.518600       -9999.0000        11.341800
       12.721000       -9999.0000        11.425300
       12.926800       -9999.0000        11.372700
       13.135900       -9999.0000        11.320300
       13.348300       -9999.0000        11.268100
       13.564200       -9999.0000        11.209500
       13.783600       -9999.0000        11.115500
       14.006600       -9999.0000        11.022300
       14.233100       -9999.0000        10.930000
       14.463300       -9999.0000        10.838300
       14.697300       -9999.0000        10.747500
       14.935000       -9999.0000        10.657400
       15.176500       -9999.0000        10.457300
       15.422000       -9999.0000        10.190500
       15.671400       -9999.0000        9.9305600
       15.924900       -9999.0000        9.6772100
       16.182500       -9999.0000        9.4303400
       16.444200       -9999.0000        9.1897600
       16.710200       -9999.0000        8.9553200
       16.980500       -9999.0000        8.7268600
       17.255100       -9999.0000        8.5042300
       17.534200       -9999.0000        8.2872800
       17.817800       -9999.0000        8.0758600
       18.106000       -9999.0000        7.8698400
       18.398900       -9999.0000        7.6690700
       18.696400       -9999.0000        7.4217500
       18.998800       -9999.0000        7.1479900
       19.306100       -9999.0000        6.8843300
       19.618400       -9999.0000        6.6303900
       19.935700       -9999.0000        6.3858300
       20.258200       -9999.0000        6.1502800
       20.585800       -9999.0000        5.9234300
       20.918800       -9999.0000        5.7049400
       21.257100       -9999.0000        5.4945100
       21.600900       -9999.0000        5.2918400
       21.950300       -9999.0000        5.0966500
       22.305300       -9999.0000        4.9086500
       22.666100       -9999.0000        4.6891900
       23.032700       -9999.0000        4.4410700
       23.405300       -9999.0000        4.2060900
       23.783800       -9999.0000        3.9835300
       24.168500       -9999.0000        3.7727600
       24.559400       -9999.0000        3.5731300
       24.956600       -9999.0000        3.3840700
       25.360300       -9999.0000        3.2050100
       25.770500       -9999.0000        3.0354300
       26.187300       -9999.0000        2.8748200
       26.610900       -9999.0000        2.7227000
       27.041300       -9999.0000        2.5786400
       27.478600       -9999.0000        2.4422000
       27.923100       -9999.0000        2.3129800
       28.374700       -9999.0000        2.1933200
       28.833700       -9999.0000        2.0820600
       29.300000        8.6039000        1.9764500
       29.773900        8.4894500        1.8761900
       30.255500        8.3722600        1.7810100
       30.744900        8.2513000        1.6906700
       31.242100        8.1247600        1.6081500
       31.747500        7.9998600        1.5326900
       32.260900        7.8741200        1.4607600
       32.782700        7.7462800        1.3922100
       33.313000        7.6158400        1.3268800
       33.851800        7.4823800        1.2646200
       34.399300        7.3456200        1.2052700
       34.955700        7.2056800        1.1478400
       35.521100        7.0595100        1.0911500
       36.095600        6.9063800        1.0372700
       36.679400        6.7454400       0.98604100
       37.272700        6.5731200       0.93734700
       37.875500        6.3874000       0.90375300
       38.488200        6.2046300       0.87789900
       39.110700        6.0175100       0.85278600
       39.743200        5.8197300       0.82839000
       40.386100        5.6037800       0.80469300
       41.039300        5.3760900       0.80625300
       41.703100        5.1458000       0.81008900
       42.377600        4.9006200       0.81394200
       43.063000        4.6275700       0.82342500
       43.759500        4.3346600       0.84779500
       44.467300        4.0070500       0.87288800
       45.186500        3.6032400       0.90286600
       45.917400        3.0785000       0.97734500
       46.660000        2.3542200        1.3167000
       47.414700        1.7326000        2.0013400
       48.181600        1.2776000        3.0419800
       48.960900        1.2957400        4.6236900
       49.752800        3.1764900        7.0279200
       50.557600        5.8987300        4.8326500
       51.375300        5.9368600        2.8196700
       52.206200        4.9523300        1.6451800
       53.050600        3.7669800        1.3465700
       53.908700        2.9700600        1.3626800
       54.780600        2.1397700        1.4381900
       55.666700        1.4432200        1.9306100
       56.567000        1.1960700        2.5916300
       57.482000        1.2361700        2.4968300
       58.411700       0.80073400        2.2493100
       59.356400      -0.14758000        2.1923000
       60.316500      -0.99541600        2.5887300
       61.292100       -1.7389000        3.0568600
       62.283400       -2.4603400        3.6096200
       63.290800       -3.1653900        4.2623200
       64.314500       -3.8293200        5.0330800
       65.354700       -4.4067200        5.8725200
       66.411800       -4.9898900        6.7879000
       67.485900       -5.5405200        7.8459800
       68.577500       -5.9977300        9.0689700
       69.686700       -6.2671700        10.482600
       70.813800       -6.0455300        11.813100
       71.959100       -5.9890700        12.867500
       73.123000       -5.9612900        14.016000
       74.305700       -5.8679900        15.267000
       75.507600       -5.6150800        16.537500
       76.728900       -5.3479300        17.805800
       77.969900       -4.9939000        19.171300
       79.231000       -4.4749800        20.641500
       80.512500       -3.5975300        22.224500
       81.814700       -2.5619400        23.259600
       83.138000       -1.6248400        24.310800
       84.482700      -0.67559800        25.409500
       85.849100       0.42151700        26.557800
       87.237700        1.7108700        27.539400
       88.648700        2.9886500        28.451700
       90.082500        4.3503600        29.394100
       91.539500        5.9869200        30.367700
       93.020100        7.7410000        30.858300
       94.524600        9.4436600        31.322700
       96.053500        11.313600        31.794100
       97.607100        13.235100        31.819400
       99.185800        15.056000        31.794000
       100.79000        17.054700        31.768600
       102.42000        18.972800        31.086900
       104.07700        20.649100        30.415800
       105.76000        22.214000        29.759300
       107.47100        23.817500        29.116900
       109.20900        25.773800        28.488400
       110.97500        27.808700        26.817300
       112.77000        29.027000        24.868600
       114.59400        29.816900        23.061400
       116.44800        30.347000        21.385700
       118.33100        30.692000        19.831700
       120.24500        30.899000        18.390600
       122.19000        30.999500        17.054300
       124.16600        31.019400        15.815100
       126.17500        30.979600        14.665800
       128.21500        30.905700        13.600100
       130.28900        30.858100        12.569700
       132.39700        30.689000        11.490800
       134.53800        30.427800        10.504500
       136.71400        30.110700        9.6028500
       138.92500        29.758000        8.7785900
       141.17200        29.381700        8.0251100
       143.45600        28.989600        7.3362700
       145.77600        28.589400        6.7065900
       148.13400        28.187900        6.1309500
       150.53000        27.797200        5.6047000
       152.96400        27.457900        5.1236200
       155.43900        27.095400        4.5091900
       157.95300        26.620000        3.9360900
       160.50700        26.068600        3.4346800
       163.10300        25.456800        2.9958100
       165.74200        24.746400        2.7171500
       168.42200        24.135700        2.5760300
       171.14600        23.591800        2.4884500
       173.91500        23.103900        2.4294000
       176.72700        22.623700        2.3896700
       179.58600        22.191000        2.3937600
       182.49100        21.780700        2.3978600
       185.44200        21.386800        2.4433700
       188.44200        21.017600        2.5009500
       191.48900        20.668100        2.5942300
       194.58700        20.358400        2.7052100
       197.73400        20.076900        2.8209300
       200.93200        19.816900        2.9418200
       204.18200        19.576100        3.0683100
       207.48500        19.352200        3.2002300
       210.84000        19.144100        3.3378300
       214.25100        18.950800        3.4813400
       217.71600        18.772200        3.6310200
       221.23700        18.608300        3.7871400
       224.81600        18.460600        3.9499700
       228.45200        18.337500        4.1124700
       232.14700        18.219800        4.2687100
       235.90200        18.108000        4.4308800
       239.71700        18.007300        4.5992200
       243.59500        17.919000        4.7739500
       247.53500        17.845300        4.9553100
       251.53800        17.789700        5.1435700
       255.60700        17.764700        5.3389800
       259.74100        17.764000        5.4985400
       263.94200        17.756500        5.6467800
       268.21100        17.746400        5.7990200
       272.54900        17.744000        5.9553800
       276.95700        17.752800        6.1159400
       281.43700        17.777700        6.2808400
       285.98900        17.847200        6.4501700
       290.61500        17.920500        6.5556200
       295.31500        17.979400        6.6610700
       300.09200        18.046400        6.7682300
       304.94500        18.129700        6.8457200
       309.87800        18.194000        6.9016200
       314.89000        18.242300        6.9579700
       319.98300        18.286000        7.0147800
       325.15800        18.328200        7.0720600
       330.41800        18.371700        7.1298100
       335.76200        18.421900        7.1880200
       341.19200        18.500400        7.2374000
       346.71100        18.557500        7.2320100
       352.31900        18.591000        7.2266300
       358.01700        18.608700        7.2212500
       363.80800        18.615400        7.2158700
       369.69200        18.612400        7.2105000
       375.67200        18.600900        7.2051300
       381.74800        18.581600        7.1997700
       387.92200        18.555700        7.1944100
       394.19700        18.525300        7.1890500
       400.57300        18.501100        7.1815800
       407.05200        18.458400        7.1397100
       413.63500        18.392100        7.0980900
       420.32600        18.305300        7.0567100
       427.12400        18.200700        7.0155800
       434.03200        18.078200        6.9746800
       441.05200        17.937300        6.9340200
       448.18600        17.777400        6.8936000
       455.43500        17.597600        6.8534100
       462.80200        17.402600        6.8134600
       470.28700        17.187600        6.7574100
       477.89400        16.929100        6.6875200
       485.62300        16.627300        6.6183600
       493.47800        16.281100        6.5499000
       501.45900        15.885800        6.4821600
       509.57000        15.434900        6.4151300
       517.81200        14.919100        6.3483300
       526.18700        14.326000        6.2819500
       534.69800        13.639600        6.2162700
       543.34600        12.837800        6.1512800
       552.13400        11.889400        6.0869600
       561.06500        10.748400        6.0233200
       570.13900        9.3407000        5.9603400
       579.36100        7.5551200        5.9128200
       588.73200        5.1853200        5.8702300
       598.25400        1.7665100        5.8281400
       607.93000       -4.0549600        5.7863400
       617.76300       -21.913900        5.7448400
       619.90000       -56.487000        5.7359500
       620.10000       -56.428600        41.054500
       627.75500       -6.4942100        40.175300
       637.90800        3.6824900        39.054000
       648.22600        9.3087600        37.964000
       658.71100        13.197900        36.904300
       669.36500        16.090600        35.873200
       680.19100        18.350700        34.966700
       691.19300        20.237800        34.157700
       702.37200        21.861000        33.398500
       713.73300        23.274100        32.660400
       725.27700        24.507900        31.941500
       737.00800        25.585300        31.236400
       748.92800        26.522100        30.548100
       761.04200        27.322200        29.877000
       773.35100        27.994500        29.234000
       785.85900        28.544800        28.654000
       798.57000        29.021400        28.125600
       811.48600        29.420800        27.608500
       824.61100        29.710500        27.099800
       837.94900        29.680200        26.599600
       851.50200        29.511600        26.482400
       865.27400        29.273900        26.784200
       879.26900        29.373800        27.475000
       893.49100        29.877400        28.184600
       907.94300        30.616900        28.913000
       922.62800        32.042600        29.660700
       937.55100        33.531900        29.513400
       952.71500        34.796100        29.140000
       968.12400        35.822600        28.576900
       983.78300        36.619200        28.023600
       999.69500        37.305800        27.487500
       1015.8600        37.883500        26.968400
       1032.2900        38.406200        26.516900
       1048.9900        38.897800        26.092400
       1065.9600        39.372600        25.695100
       1083.2000        39.837000        25.304100
       1100.7200        40.283000        24.919100
       1118.5200        40.712100        24.539800
       1136.6100        41.125700        24.166300
       1155.0000        41.525800        23.798400
       1173.6800        41.914100        23.436000
       1192.6600        42.293400        23.079400
       1211.9500        42.666100        22.728100
       1231.5500        43.051200        22.382200
       1251.4700        43.435000        22.011200
       1271.7200        43.816400        21.613700
       1292.2900        44.159500        21.183700
       1313.1900        44.458100        20.762400
       1334.4300        44.733600        20.349400
       1356.0100        44.989700        19.944600
       1377.9400        45.228800        19.547600
       1400.2300        45.453000        19.158700
       1422.8800        45.664100        18.777600
       1445.8900        45.864600        18.404000
       1469.2800        46.055100        18.036200
       1493.0400        46.239200        17.673300
       1517.1900        46.411100        17.308000
       1541.7300        46.567300        16.948900
       1566.6700        46.712000        16.597200
       1592.0100        46.846400        16.252700
       1617.7600        46.971700        15.915400
       1643.9200        47.088800        15.585300
       1670.5100        47.198400        15.261700
       1697.5300        47.301200        14.944900
       1724.9900        47.399400        14.634800
       1752.8900        47.491300        14.325800
       1781.2400        47.575200        14.021700
       1810.0500        47.650900        13.722900
       1839.3200        47.719600        13.430100
       1869.0700        47.781600        13.143500
       1899.3000        47.837700        12.863200
       1930.0200        47.888600        12.588800
       1961.2400        47.934600        12.320400
       1992.9600        47.974500        12.057900
       2025.2000        48.014000        11.805000
       2057.9500        48.050900        11.549900
       2091.2400        48.081500        11.299400
       2125.0600        48.106800        11.053600
       2159.4300        48.127700        10.812700
       2194.3600        48.144400        10.576300
       2229.8500        48.156900        10.344000
       2265.9200        48.165000        10.116500
       2302.5700        48.169400        9.8933700
       2339.8100        48.169900        9.6743000
       2377.6600        48.166700        9.4595000
       2416.1100        48.159600        9.2486200
       2455.1900        48.148800        9.0420600
       2494.9000        48.134200        8.8391900
       2535.2600        48.116100        8.6404300
       2576.2600        48.094300        8.4452600
       2617.9300        48.068800        8.2538600
       2660.2700        48.039300        8.0660700
       2703.3000        48.006200        7.8823400
       2747.0300        47.969500        7.7017900
       2791.4600        47.928800        7.5247400
       2836.6100        47.884200        7.3511000
       2882.4900        47.835400        7.1807000
       2929.1100        47.782300        7.0136200
       2976.4800        47.724800        6.8497100
       3024.6300        47.662600        6.6890300
       3073.5500        47.595600        6.5313900
       3123.2600        47.523400        6.3767100
       3173.7800        47.445700        6.2250700
       3225.1100        47.362200        6.0763200
       3277.2700        47.272300        5.9304000
       3330.2800        47.175600        5.7872700
       3384.1500        47.071500        5.6469000
       3438.8800        46.959200        5.5092000
       3494.5000        46.837900        5.3741300
       3551.0200        46.706500        5.2416700
       3608.4600        46.563800        5.1116800
       3666.8200        46.408200        4.9841800
       3726.1300        46.237900        4.8591800
       3786.4000        46.050600        4.7364500
       3847.6400        45.843100        4.6160900
       3909.8700        45.611800        4.4981000
       3973.1100        45.351500        4.3822900
       4037.3800        45.055100        4.2686800
       4102.6800        44.712800        4.1572400
       4169.0300        44.309900        4.0478900
       4236.4600        43.823000        3.9406100
       4304.9800        43.211900        3.8354600
       4374.6200        42.396700        3.7321700
       4445.3700        41.177100        3.6308200
       4517.2700        38.703200        3.5314800
       4557.0000        24.584600        3.4784200
       4557.2000        24.586300        10.894800
       4590.3300        38.216200        10.767600
       4664.5800        40.749200        10.491200
       4740.0300        41.509800        10.221900
       4816.6900        41.132000        9.9596000
       4852.0000        34.839000        9.8424200
       4852.2000        34.843400        13.427600
       4894.6000        41.982400        13.236900
       4973.7700        43.626100        12.892100
       5054.2100        44.439800        12.556500
       5135.9600        44.766100        12.229500
       5188.0000        41.494500        12.028500
       5188.2000        41.498900        13.962300
       5219.0300        45.065700        13.838100
       5303.4400        46.444000        13.507200
       5389.2200        47.278500        13.182200
       5476.3900        47.929600        12.863600
       5564.9700        48.473600        12.551100
       5654.9800        48.942600        12.244500
       5746.4400        49.354200        11.944000
       5839.3900        49.719800        11.649500
       5933.8300        50.047200        11.361000
       6029.8100        50.342300        11.078500
       6127.3300        50.609500        10.801700
       6226.4400        50.852000        10.530800
       6327.1500        51.072900        10.265700
       6429.4800        51.274500        10.006300
       6533.4800        51.458700        9.7525700
       6639.1500        51.627200        9.5043800
       6746.5400        51.781400        9.2617300
       6855.6500        51.922600        9.0245400
       6966.5400        52.052000        8.7926500
       7079.2200        52.170300        8.5659600
       7193.7200        52.278600        8.3446200
       7310.0700        52.377600        8.1282400
       7428.3100        52.467900        7.9169700
       7548.4500        52.550200        7.7107800
       7670.5400        52.625300        7.5093800
       7794.6100        52.693500        7.3127400
       7920.6800        52.755300        7.1208400
       8048.7900        52.811200        6.9333600
       8178.9800        52.861300        6.7504600
       8311.2600        52.906300        6.5722500
       8445.6900        52.946800        6.3983000
       8582.2900        52.982600        6.2283600
       8721.1100        53.014000        6.0628600
       8862.1600        53.041600        5.9014900
       9005.5000        53.065700        5.7441000
       9151.1600        53.086200        5.5903600
       9299.1700        53.103400        5.4408300
       9449.5800        53.117700        5.2949300
       9602.4200        53.129200        5.1527600
       9757.7300        53.138100        5.0141200
       9915.5500        53.144400        4.8789700
       10075.900        53.148400        4.7473700
       10238.900        53.150200        4.6191500
       10404.500        53.150100        4.4942300
       10572.800        53.148100        4.3725200
       10743.800        53.144300        4.2539700
       10917.600        53.138900        4.1385000
       11094.200        53.131900        4.0260300
       11273.600        53.123500        3.9165000
       11455.900        53.113800        3.8098300
       11641.200        53.102800        3.7059600
       11829.500        53.090700        3.6048200
       12020.800        53.077500        3.5063500
       12215.300        53.063300        3.4104700
       12412.800        53.048100        3.3171400
       12613.600        53.032100        3.2262700
       12817.600        53.015200        3.1378200
       13025.000        52.997600        3.0517200
       13235.600        52.979200        2.9679200
       13449.700        52.960200        2.8863600
       13667.200        52.940600        2.8069800
       13888.300        52.920400        2.7297200
       14112.900        52.899700        2.6545400
       14341.200        52.878500        2.5813800
       14573.100        52.856800        2.5101800
       14808.900        52.834600        2.4409000
       15048.400        52.812100        2.3734900
       15291.800        52.789200        2.3079100
       15539.100        52.765800        2.2440900
       15790.400        52.742200        2.1820000
       16045.800        52.718200        2.1216000
       16305.400        52.693900        2.0628300
       16569.100        52.669200        2.0056600
       16837.100        52.644300        1.9500300
       17109.400        52.619100        1.8959300
       17386.100        52.593500        1.8432900
       17667.400        52.567700        1.7920900
       17953.100        52.541600        1.7422800
       18243.500        52.515100        1.6938300
       18538.600        52.488400        1.6467000
       18838.400        52.461300        1.6008600
       19143.100        52.433800        1.5562600
       19452.700        52.406000        1.5128900
       19767.400        52.377800        1.4707000
       20087.100        52.349200        1.4296700
       20412.000        52.320100        1.3897500
       20742.100        52.290500        1.3509300
       21077.600        52.260400        1.3131700
       21418.500        52.229700        1.2764500
       21765.000        52.198300        1.2407300
       22117.000        52.166200        1.2059800
       22474.700        52.133400        1.1721900
       22838.200        52.099600        1.1393200
       23207.600        52.064800        1.1073500
       23583.000        52.028900        1.0762600
       23964.400        51.991700        1.0460200
       24352.000        51.953100        1.0166000
       24745.900        51.912900       0.98799200
       25146.200        51.870800       0.96016400
       25552.900        51.826600       0.93309800
       25966.200        51.779900       0.90677200
       26386.100        51.730400       0.88116500
       26812.900        51.677500       0.85625800
       27246.600        51.620500       0.83203100
       27687.300        51.558800       0.80846600
       28135.100        51.491300       0.78554400
       28590.200        51.416700       0.76324700
       29052.600        51.333100       0.74155900
       29522.500        51.237900       0.72046100
       30000.000        51.127400       0.69993900
       30100.000        51.073400       0.69109200
       30200.000        51.047100       0.68691600
       30300.000        51.019900       0.68274100
       30400.000        50.991500       0.67856500
       30500.000        50.962100       0.67454200
       30600.000        50.931500       0.67051900
       30700.000        50.899700       0.66649700
       30800.000        50.866400       0.66247400
       30900.000        50.831600       0.65859800
       31000.000        50.795200       0.65472200
       31100.000        50.756900       0.65084600
       31200.000        50.716600       0.64697000
       31300.000        50.674000       0.64323400
       31400.000        50.629000       0.63949700
       31500.000        50.581100       0.63576100
       31600.000        50.530200       0.63202400
       31700.000        50.475500       0.62842000
       31800.000        50.416800       0.62481500
       31850.000        50.385700       0.62301300
       31900.000        50.353300       0.62121100
       31950.000        50.319500       0.61940800
       32000.000        50.284200       0.61760600
       32050.000        50.247300       0.61586600
       32100.000        50.208700       0.61412500
       32150.000        50.167800       0.61238500
       32200.000        50.124900       0.61064500
       32250.000        50.079600       0.60890500
       32300.000        50.031600       0.60716500
       32350.000        49.980500       0.60542400
       32400.000        49.926000       0.60368400
       32450.000        49.867600       0.60200400
       32500.000        49.804800       0.60032300
       32550.000        49.736700       0.59864300
       32580.000        49.693000       0.59763500
       32600.000        49.662600       0.59696200
       32630.000        49.614700       0.59595400
       32650.000        49.581200       0.59528200
       32670.000        49.546300       0.59461000
       32700.000        49.491100       0.59360200
       32730.000        49.432000       0.59259400
       32750.000        49.390200       0.59192100
       32770.000        49.346200       0.59124900
       32800.000        49.275700       0.59024100
       32820.000        49.225200       0.58959100
       32850.000        49.143500       0.58861500
       32870.000        49.084400       0.58796400
       32900.000        48.987300       0.58698900
       32910.000        48.952400       0.58666300
       32920.000        48.916000       0.58633800
       32935.000        48.858400       0.58585000
       32950.000        48.796800       0.58536200
       32965.000        48.730500       0.58487400
       32980.000        48.658800       0.58438700
       32990.000        48.607500       0.58406100
       33000.000        48.553100       0.58373600
       33010.000        48.495100       0.58341100
       33020.000        48.433100       0.58308600
       33030.000        48.366300       0.58276000
       33040.000        48.294200       0.58243500
       33050.000        48.215700       0.58211000
       33060.000        48.129700       0.58178500
       33070.000        48.034400       0.58145900
       33075.000        47.982700       0.58129700
       33080.000        47.927800       0.58113400
       33085.000        47.869200       0.58097200
       33090.000        47.806600       0.58080900
       33095.000        47.739300       0.58064600
       33100.000        47.666500       0.58048400
       33105.000        47.587100       0.58032100
       33110.000        47.500100       0.58015800
       33115.000        47.403500       0.57999600
       33120.000        47.295100       0.57983300
       33122.000        47.247400       0.57976800
       33125.000        47.171400       0.57967100
       33128.000        47.087700       0.57957300
       33130.000        47.027000       0.57950800
       33133.000        46.927100       0.57941000
       33135.000        46.853400       0.57934500
       33138.000        46.729100       0.57924800
       33140.000        46.634600       0.57918300
       33142.000        46.527500       0.57911800
       33144.000        46.404200       0.57905300
       33146.000        46.258100       0.57898800
       33148.000        46.078000       0.57892200
       33150.000        45.842500       0.57885700
       33151.000        45.690500       0.57882500
       33152.000        45.501100       0.57879200
       33153.000        45.252200       0.57876000
       33154.000        44.896700       0.57872700
       33155.500        43.845800       0.57867900
       33156.900        39.173700       0.57863300
       33157.000        39.840400        3.6858900
       33157.100        40.874500        6.7931400
       33157.200        41.902800        9.9003900
       33157.600        46.028800        22.329400
       33158.200        52.205600       0.57859000
       33159.100        48.674700       0.57856100
       33160.000        47.405200       0.57853300
       33160.800        46.781400       0.57850700
       33161.500        46.365900       0.57848500
       33162.300        45.943100       0.57846000
       33162.700        45.724900       0.57844700
       33163.000        45.549900       0.57843800
       33163.500        45.217500       0.57842200
       33163.900        44.880900       0.57840900
       33164.400        44.260400       0.57839400
       33164.800        43.312400       0.57838100
       33164.900        43.513300        1.4584400
       33165.100        43.984100        3.2185500
       33165.500        44.844600        6.7387800
       33166.100        45.701400       0.57833900
       33166.100        45.685100       0.57833800
       33166.800        45.719200       0.57831800
       33166.800        45.714900        4.7602600
       33167.100        45.869300       0.57830700
       33167.400        46.036300        1.1606100
       33167.400        46.030600       0.75451800
       33168.100        44.770900        1.6532400
       33168.400        44.683100        2.4098600
       33168.800        44.788500        3.0662000
       33169.100        45.046100        3.0787300
       33169.500        45.358400        3.0956700
       33169.800        45.443700        3.1084900
       33170.200        45.532000        3.1255900
       33170.600        45.604900        3.1427900
       33171.000        45.667700        3.1600700
       33171.400        45.722600        3.1726600
       33171.800        45.772900        3.1854300
       33172.100        45.807700        3.1950700
       33172.500        45.850700        3.2079200
       33172.900        45.890200        3.2188900
       33173.300        45.928000        3.2298600
       33173.600        45.955000        3.2381900
       33174.000        45.989400        3.2493000
       33174.700        46.045500        3.2666200
       33175.500        46.105400        3.2864200
       33176.300        46.161500        3.3044300
       33177.000        46.208000        3.3201800
       33177.700        46.252300        3.3344100
       33178.500        46.300600        3.3506800
       33179.200        46.341800        3.3637200
       33180.000        46.386900        3.3786300
       33181.500        46.468000        3.4039200
       33183.000        46.545100        3.4268400
       33184.000        46.594200        3.4404500
       33185.000        46.642100        3.4526200
       33186.500        46.711300        3.4679100
       33188.000        46.777700        3.4831900
       33190.000        46.862200        3.4984700
       33193.000        46.979900        3.5135100
       33195.000        47.052700        3.5197100
       33198.000        47.154100        3.5241900
       33200.000        47.216200        3.5241800
       33202.000        47.274600        3.5226400
       33204.000        47.328900        3.5193700
       33206.000        47.379800        3.5151300
       33208.000        47.427000        3.5109000
       33210.000        47.471300        3.5062100
       33212.000        47.512500        3.5015100
       33215.000        47.569800        3.4944700
       33219.000        47.639000        3.4855500
       33222.000        47.685200        3.4805400
       33226.000        47.743000        3.4749600
       33230.000        47.795300        3.4721700
       33234.000        47.845200        3.4714400
       33238.000        47.891400        3.4707100
       33245.000        47.969100        3.4734500
       33253.000        48.053300        3.4788300
       33260.000        48.124100        3.4833800
       33270.000        48.220400        3.4872100
       33280.000        48.309900        3.4874900
       33290.000        48.391500        3.4842000
       33300.000        48.464800        3.4795800
       33310.000        48.530700        3.4774700
       33320.000        48.591500        3.4753500
       33328.000        48.637800        3.4736600
       33335.000        48.676300        3.4721800
       33343.000        48.717600        3.4704900
       33350.000        48.753100        3.4690100
       33360.000        48.802400        3.4682800
       33370.000        48.850300        3.4675500
       33385.000        48.918300        3.4664500
       33400.000        48.981400        3.4653500
       33410.000        49.021300        3.4639400
       33420.000        49.059600        3.4625300
       33435.000        49.114300        3.4604200
       33450.000        49.166200        3.4583000
       33465.000        49.215500        3.4561900
       33480.000        49.262400        3.4540800
       33500.000        49.321800        3.4512600
       33520.000        49.377900        3.4482700
       33550.000        49.456600        3.4438000
       33570.000        49.505900        3.4408100
       33600.000        49.575900        3.4363300
       33620.000        49.620100        3.4333400
       33650.000        49.682700        3.4288700
       33670.000        49.722400        3.4258800
       33700.000        49.779100        3.4214000
       33730.000        49.832800        3.4167300
       33750.000        49.867000        3.4136100
       33770.000        49.900100        3.4105000
       33800.000        49.947900        3.4058300
       33820.000        49.978500        3.4027100
       33850.000        50.022700        3.3980400
       33900.000        50.091900        3.3902500
       33950.000        50.156900        3.3837100
       34000.000        50.218600        3.3771600
       34050.000        50.277300        3.3706200
       34100.000        50.333600        3.3640800
       34150.000        50.387300        3.3561700
       34200.000        50.438100        3.3482600
       34250.000        50.486700        3.3403600
       34300.000        50.533300        3.3324500
       34340.000        50.568800        3.3256300
       34380.000        50.603300        3.3188200
       34450.000        50.660700        3.3068900
       34530.000        50.722100        3.2929200
       34600.000        50.772400        3.2806900
       34650.000        50.806700        3.2723000
       34700.000        50.839800        3.2639100
       34750.000        50.871600        3.2555300
       34800.000        50.902000        3.2471400
       34900.000        50.960300        3.2322000
       35000.000        51.015500        3.2172700
       35070.000        51.052300        3.2075200
       35150.000        51.093100        3.1963700
       35220.000        51.127500        3.1867200
       35300.000        51.165400        3.1757000
       35400.000        51.211000        3.1625600
       35500.000        51.255100        3.1494200
       35600.000        51.297500        3.1362800
       35700.000        51.338200        3.1231400
       35800.000        51.377400        3.1100800
       35900.000        51.415400        3.0970200
       35970.000        51.441400        3.0878800
       36030.000        51.463500        3.0800400
       36160.000        51.509000        3.0621700
       36300.000        51.555300        3.0429300
       36400.000        51.587000        3.0291800
       36500.000        51.617600        3.0154400
       36650.000        51.661700        2.9952000
       36800.000        51.703500        2.9749600
       36900.000        51.730300        2.9614600
       37000.000        51.756400        2.9479700
       37150.000        51.793900        2.9281600
       37300.000        51.829700        2.9083500
       37400.000        51.852700        2.8951400
       37500.000        51.875000        2.8819300
       37650.000        51.907200        2.8628700
       37800.000        51.938100        2.8438000
       37900.000        51.957900        2.8310900
       38000.000        51.977300        2.8183800
       38150.000        52.005400        2.8000600
       38300.000        52.032500        2.7817400
       38400.000        52.049900        2.7695200
       38500.000        52.066700        2.7573100
       38650.000        52.091300        2.7400900
       38800.000        52.115200        2.7228800
       38900.000        52.130700        2.7114000
       39000.000        52.145900        2.6999200
       39150.000        52.168100        2.6833900
       39300.000        52.189500        2.6668500
       39400.000        52.203400        2.6558300
       39500.000        52.217000        2.6448100
       39800.000        52.256700        2.6131500
       39900.000        52.269500        2.6026000
       40000.000        52.282000        2.5920500
       40200.000        52.306500        2.5715300
       40400.000        52.329900        2.5510100
       40600.000        52.352400        2.5304900
       40800.000        52.374100        2.5099700
       40950.000        52.389800        2.4953100
       41100.000        52.405200        2.4806400
       41300.000        52.425000        2.4610900
       41500.000        52.444200        2.4415400
       41700.000        52.462700        2.4228900
       41900.000        52.480500        2.4042400
       42100.000        52.497900        2.3856000
       42300.000        52.514600        2.3669500
       42450.000        52.526900        2.3536000
       42600.000        52.538900        2.3402500
       42800.000        52.554400        2.3224600
       43000.000        52.569700        2.3046600
       43200.000        52.584400        2.2873000
       43300.000        52.591600        2.2786300
       43350.000        52.595100        2.2742900
       43400.000        52.598900        2.2699500
       43450.000        52.602100        2.2656100
       43500.000        52.605500        2.2612700
       43600.000        52.612300        2.2525900
       43800.000        52.625500        2.2352400
       43950.000        52.635200        2.2228000
       44100.000        52.644600        2.2103700
       44300.000        52.656800        2.1937800
       44500.000        52.668700        2.1772000
       44700.000        52.680300        2.1612300
       44900.000        52.691500        2.1452600
       45100.000        52.702600        2.1292900
       45300.000        52.713300        2.1133200
       45450.000        52.721000        2.1017200
       45600.000        52.728500        2.0901300
       45800.000        52.738200        2.0746600
       46000.000        52.747600        2.0592000
       46150.000        52.754500        2.0480000
       46300.000        52.761200        2.0368100
       46500.000        52.769900        2.0218800
       46800.000        52.782500        2.0001300
       47000.000        52.790600        1.9856300
       47300.000        52.802300        1.9644900
       47500.000        52.809800        1.9504000
       47800.000        52.820700        1.9298500
       48000.000        52.827800        1.9161500
       48300.000        52.837900        1.8964000
       48500.000        52.844500        1.8832200
       48800.000        52.854000        1.8634700
       49000.000        52.860100        1.8503000
       49500.000        52.874700        1.8187100
       49800.000        52.883100        1.8002700
       50000.000        52.888600        1.7879700
       50300.000        52.896600        1.7698300
       50500.000        52.901600        1.7577400
       50800.000        52.908800        1.7395900
       51000.000        52.913400        1.7275000
       51500.000        52.924200        1.6988400
       52000.000        52.934200        1.6701900
       52500.000        52.943500        1.6430100
       53000.000        52.952100        1.6158300
       53500.000        52.960100        1.5900300
       54000.000        52.967400        1.5642300
       54500.000        52.974300        1.5397100
       55000.000        52.980500        1.5151900
       55500.000        52.986300        1.4920200
       56000.000        52.991800        1.4688500
       56800.000        52.999800        1.4333700
       57530.000        53.006300        1.4021600
       58000.000        53.010200        1.3826300
       58500.000        53.014100        1.3622500
       59540.000        53.021300        1.3213400
       59800.000        53.022900        1.3114200
       60000.000        53.024200        1.3038600
       60800.000        53.028700        1.2739900
       61500.000        53.032100        1.2487200
       62300.000        53.035600        1.2206700
       63000.000        53.038000        1.1967600
       64000.000        53.040900        1.1638500
       65000.000        53.043100        1.1323400
       65900.000        53.044600        1.1049300
       66830.000        53.045500        1.0776900
       67400.000        53.045900        1.0615000
       68000.000        53.046100        1.0448700
       69000.000        53.046000        1.0180400
       70000.000        53.045900       0.99227800
       71000.000        53.045100       0.96746300
       72000.000        53.044300       0.94360400
       72800.000        53.043200       0.92517000
       73500.000        53.042300       0.90949700
       74200.000        53.041400       0.89423500
       74960.000        53.040300       0.87811200
       75500.000        53.039400       0.86681500
       76000.000        53.038600       0.85654800
       77110.000        53.036400       0.83441700
       78600.000        53.033200       0.80608000
       79300.000        53.031600       0.79328000
       80000.000        53.030000       0.78079300
       81500.000        53.026200       0.75483800
       83000.000        53.022400       0.73019600
       84000.000        53.019600       0.71445300
       85000.000        53.016800       0.69923000
       86500.000        53.012400       0.67730400
       88000.000        53.008100       0.65642500
       89000.000        53.005100       0.64305500
       90000.000        53.002200       0.63010100
       91500.000        52.997700       0.61133900
       93000.000        52.993200       0.59342800
       94000.000        52.990300       0.58193300
       95000.000        52.987300       0.57078000
       96500.000        52.982800       0.55449000
       98000.000        52.978300       0.53890500
       99000.000        52.975400       0.52888700
       99500.000        52.973900       0.52398600
       100000.00        52.972400       0.51915400
