;  Atomic scattering factors for K.
;   
;  Concatenation of data from CXRO <http://www-cxro.lbl.gov>
;  and LLNL <http://www-phys.llnl.gov/V_Div/scattering/asf.html>
;  
;  E (eV) f1 f2
;---------------
       10.000000       -9999.0000      0.034264300
       10.161700       -9999.0000      0.035292100
       10.326100       -9999.0000      0.036350700
       10.493100       -9999.0000      0.037441000
       10.662800       -9999.0000      0.038564100
       10.835300       -9999.0000      0.039720900
       11.010600       -9999.0000      0.040912300
       11.188600       -9999.0000      0.042139500
       11.369600       -9999.0000      0.043403500
       11.553500       -9999.0000      0.044705400
       11.740400       -9999.0000      0.045891800
       11.930300       -9999.0000      0.046776100
       12.123200       -9999.0000      0.047677500
       12.319300       -9999.0000      0.048596200
       12.518600       -9999.0000      0.049532600
       12.721000       -9999.0000      0.050503400
       12.926800       -9999.0000      0.051518300
       13.135900       -9999.0000      0.052553600
       13.348300       -9999.0000      0.053609700
       13.564200       -9999.0000      0.054707600
       13.783600       -9999.0000      0.055861000
       14.006600       -9999.0000      0.057038700
       14.233100       -9999.0000      0.058241300
       14.463300       -9999.0000      0.059469200
       14.697300       -9999.0000      0.060838600
       14.935000       -9999.0000      0.062358500
       15.176500       -9999.0000      0.063916200
       15.422000       -9999.0000      0.065512900
       15.671400       -9999.0000      0.066729700
       15.924900       -9999.0000      0.069865500
       16.182500       -9999.0000      0.077803400
       16.444200       -9999.0000      0.092740700
       16.710200       -9999.0000       0.10103800
       16.980500       -9999.0000       0.10007700
       17.255100       -9999.0000      0.099124700
       17.534200       -9999.0000      0.097203000
       17.817800       -9999.0000       0.10159700
       18.106000       -9999.0000       0.12593400
       18.398900       -9999.0000       0.16981500
       18.696400       -9999.0000       0.23268500
       18.998800       -9999.0000       0.31699900
       19.306100       -9999.0000       0.44577200
       19.618400       -9999.0000       0.69571500
       19.935700       -9999.0000        1.3674300
       20.258200       -9999.0000        4.6752300
       20.585800       -9999.0000        5.5387600
       20.918800       -9999.0000        6.0193600
       21.257100       -9999.0000        6.5416500
       21.600900       -9999.0000        7.1092600
       21.950300       -9999.0000        7.7261200
       22.305300       -9999.0000        8.2108300
       22.666100       -9999.0000        8.6597000
       23.032700       -9999.0000        9.1331200
       23.405300       -9999.0000        9.6324200
       23.783800       -9999.0000        10.159000
       24.168500       -9999.0000        10.713600
       24.559400       -9999.0000        11.260700
       24.956600       -9999.0000        11.835800
       25.360300       -9999.0000        12.440200
       25.770500       -9999.0000        13.075600
       26.187300       -9999.0000        13.652600
       26.610900       -9999.0000        13.946100
       27.041300       -9999.0000        14.245900
       27.478600       -9999.0000        14.552100
       27.923100       -9999.0000        14.864900
       28.374700       -9999.0000        15.184400
       28.833700       -9999.0000        15.470600
       29.300000        2.1782800        15.547700
       29.773900        2.8993900        15.625100
       30.255500        3.6081700        15.702900
       30.744900        4.3357100        15.781200
       31.242100        5.1170700        15.859800
       31.747500        6.0337300        15.813600
       32.260900        6.8311900        15.637600
       32.782700        7.5904400        15.463500
       33.313000        8.3538700        15.291400
       33.851800        9.1846100        15.121200
       34.399300        10.198800        14.943700
       34.955700        11.164100        14.249900
       35.521100        11.945100        13.588300
       36.095600        12.603500        12.789600
       36.679400        13.135400        12.032400
       37.272700        13.680300        11.266900
       37.875500        14.050400        10.283100
       38.488200        14.222300        9.3851300
       39.110700        14.281600        8.5829700
       39.743200        14.298200        7.8549800
       40.386100        14.307900        7.1559100
       41.039300        14.224500        6.4599200
       41.703100        14.068700        5.8316200
       42.377600        13.861900        5.3053000
       43.063000        13.689200        4.8561700
       43.759500        13.544400        4.4450700
       44.467300        13.456700        4.0236600
       45.186500        13.332100        3.5828100
       45.917400        13.270200        3.0805300
       46.660000        12.974100        2.5130900
       47.414700        12.617300        2.1401800
       48.181600        12.282400        1.8192800
       48.960900        11.961300        1.5449000
       49.752800        11.641700        1.2883000
       50.557600        11.308200        1.0723400
       51.375300        10.976800       0.89645400
       52.206200        10.643900       0.75739400
       53.050600        10.315400       0.68017800
       53.908700        10.036400       0.63298600
       54.780600        9.7803100       0.59501400
       55.666700        9.5298800       0.56739400
       56.567000        9.3025100       0.56323900
       57.482000        9.0872500       0.55911500
       58.411700        8.8864600       0.58071800
       59.356400        8.7039200       0.60339500
       60.316500        8.5310100       0.63256000
       61.292100        8.3657600       0.66563200
       62.283400        8.2115600       0.71753100
       63.290800        8.0711000       0.77578200
       64.314500        7.9528700       0.84552500
       65.354700        7.8504600       0.90027300
       66.411800        7.7508600       0.95654700
       67.485900        7.6558800        1.0163400
       68.577500        7.5676800        1.0825100
       69.686700        7.4904800        1.1544200
       70.813800        7.4275300        1.2278900
       71.959100        7.3720100        1.3001300
       73.123000        7.3295200        1.3755100
       74.305700        7.2948100        1.4416700
       75.507600        7.2681800        1.5110000
       76.728900        7.2554800        1.5708000
       77.969900        7.2396500        1.6239100
       79.231000        7.2253900        1.6788200
       80.512500        7.2192700        1.7339300
       81.814700        7.2160500        1.7826600
       83.138000        7.2168300        1.8327600
       84.482700        7.2296200        1.8792300
       85.849100        7.2399600        1.9155700
       87.237700        7.2497500        1.9526100
       88.648700        7.2638500        1.9903800
       90.082500        7.2883500        2.0288700
       91.539500        7.3264700        2.0461200
       93.020100        7.3461700        2.0472400
       94.524600        7.3511300        2.0528700
       96.053500        7.3586300        2.0687400
       97.607100        7.3689600        2.0847300
       99.185800        7.3820300        2.1008500
       100.79000        7.4010400        2.1170800
       102.42000        7.4200500        2.1187500
       104.07700        7.4321900        2.1193400
       105.76000        7.4400000        2.1230300
       107.47100        7.4479500        2.1277800
       109.20900        7.4558800        2.1325400
       110.97500        7.4635000        2.1373100
       112.77000        7.4709200        2.1421000
       114.59400        7.4782600        2.1468900
       116.44800        7.4856400        2.1516900
       118.33100        7.4932800        2.1565100
       120.24500        7.5014300        2.1613400
       122.19000        7.5107700        2.1661700
       124.16600        7.5241700        2.1710200
       126.17500        7.5384100        2.1663800
       128.21500        7.5469400        2.1591200
       130.28900        7.5522500        2.1518900
       132.39700        7.5553300        2.1446800
       134.53800        7.5565600        2.1375000
       136.71400        7.5561400        2.1303400
       138.92500        7.5541700        2.1232100
       141.17200        7.5507400        2.1161000
       143.45600        7.5458900        2.1090100
       145.77600        7.5396600        2.1019500
       148.13400        7.5320900        2.0949100
       150.53000        7.5232400        2.0878900
       152.96400        7.5132300        2.0809000
       155.43900        7.5023300        2.0739300
       157.95300        7.4916400        2.0669800
       160.50700        7.4813900        2.0551200
       163.10300        7.4657600        2.0404200
       165.74200        7.4454200        2.0258200
       168.42200        7.4216700        2.0113300
       171.14600        7.3946000        1.9969400
       173.91500        7.3642200        1.9826500
       176.72700        7.3304800        1.9684700
       179.58600        7.2932800        1.9543900
       182.49100        7.2525000        1.9404000
       185.44200        7.2080100        1.9265200
       188.44200        7.1597300        1.9127400
       191.48900        7.1077300        1.8990600
       194.58700        7.0541600        1.8835000
       197.73400        6.9926800        1.8644200
       200.93200        6.9232200        1.8455400
       204.18200        6.8466200        1.8268500
       207.48500        6.7624900        1.8083500
       210.84000        6.6702900        1.7900400
       214.25100        6.5693200        1.7719100
       217.71600        6.4587600        1.7539600
       221.23700        6.3376100        1.7362000
       224.81600        6.2047400        1.7186200
       228.45200        6.0593100        1.7012100
       232.14700        5.8990000        1.6821000
       235.90200        5.7198500        1.6622400
       239.71700        5.5196500        1.6426300
       243.59500        5.2952600        1.6232400
       247.53500        5.0423900        1.6040800
       251.53800        4.7554300        1.5851400
       255.60700        4.4268400        1.5664300
       259.74100        4.0463000        1.5479400
       263.94200        3.5991300        1.5296700
       268.21100        3.0635500        1.5116200
       272.54900        2.4052100        1.4937800
       276.95700        1.5654200        1.4761500
       281.43700       0.43108700        1.4587200
       285.98900       -1.2630600        1.4415100
       290.61500       -4.4472700        1.4244900
       294.50000       -20.395600        1.4105600
       294.70000       -20.375700        15.190800
       295.31500       -11.698800        15.166400
       300.09200       -2.5215100        14.979800
       304.94500       0.43101000        14.795600
       309.87800        2.2866100        14.613600
       314.89000        3.6571400        14.433800
       319.98300        4.7705600        14.253300
       325.15800        5.6786100        14.025600
       330.41800        6.3833000        13.801600
       335.76200        6.9789400        13.681500
       341.19200        7.5512700        13.591200
       346.71100        8.0910300        13.501400
       352.31900        8.5985900        13.412200
       358.01700        9.0783400        13.323700
       363.80800        9.5348100        13.235700
       369.69200        9.9722900        13.148300
       375.67200        10.395000        13.061400
       381.74800        10.807300        12.975200
       387.92200        11.215300        12.889500
       394.19700        11.633200        12.804400
       400.57300        12.073800        12.668000
       407.05200        12.468100        12.487100
       413.63500        12.817700        12.308800
       420.32600        13.146200        12.133100
       427.12400        13.458100        11.959800
       434.03200        13.757300        11.789100
       441.05200        14.047700        11.620800
       448.18600        14.334100        11.454900
       455.43500        14.645000        11.271700
       462.80200        14.921100        11.047900
       470.28700        15.159700        10.828600
       477.89400        15.380100        10.613700
       485.62300        15.585000        10.403000
       493.47800        15.776900        10.196500
       501.45900        15.957400        9.9940800
       509.57000        16.128000        9.7957100
       517.81200        16.290400        9.6012600
       526.18700        16.447900        9.4106700
       534.69800        16.598100        9.2145700
       543.34600        16.736400        9.0195300
       552.13400        16.863600        8.8286300
       561.06500        16.982700        8.6417500
       570.13900        17.094500        8.4588400
       579.36100        17.199600        8.2797900
       588.73200        17.298600        8.1045500
       598.25400        17.392100        7.9330100
       607.93000        17.480400        7.7650900
       617.76300        17.564200        7.6007400
       627.75500        17.643700        7.4398600
       637.90800        17.719400        7.2823800
       648.22600        17.791800        7.1282500
       658.71100        17.861500        6.9773700
       669.36500        17.929100        6.8296800
       680.19100        17.995400        6.6851300
       691.19300        18.070400        6.5436200
       702.37200        18.141000        6.3839100
       713.73300        18.196600        6.2235400
       725.27700        18.243100        6.0671900
       737.00800        18.283000        5.9147700
       748.92800        18.317300        5.7661900
       761.04200        18.346700        5.6213300
       773.35100        18.371500        5.4801100
       785.85900        18.392100        5.3424400
       798.57000        18.408500        5.2082300
       811.48600        18.420800        5.0773900
       824.61100        18.428700        4.9498400
       837.94900        18.431600        4.8254900
       851.50200        18.429100        4.7042700
       865.27400        18.404200        4.5932800
       879.26900        18.388800        4.5118500
       893.49100        18.389300        4.4318700
       907.94300        18.394300        4.3533000
       922.62800        18.402900        4.2761300
       937.55100        18.414800        4.2003200
       952.71500        18.430000        4.1258600
       968.12400        18.448200        4.0527200
       983.78300        18.488300        3.9726400
       999.69500        18.514000        3.8720900
       1015.8600        18.524800        3.7787000
       1032.2900        18.533800        3.6875700
       1048.9900        18.540400        3.5986300
       1065.9600        18.545000        3.5118400
       1083.2000        18.547800        3.4271400
       1100.7200        18.549100        3.3444900
       1118.5200        18.549200        3.2638300
       1136.6100        18.548100        3.1851100
       1155.0000        18.546200        3.1082900
       1173.6800        18.543400        3.0333300
       1192.6600        18.540100        2.9601700
       1211.9500        18.536500        2.8887800
       1231.5500        18.533900        2.8177900
       1251.4700        18.529400        2.7459800
       1271.7200        18.522500        2.6760000
       1292.2900        18.514300        2.6078100
       1313.1900        18.505000        2.5413500
       1334.4300        18.494900        2.4765900
       1356.0100        18.484000        2.4134700
       1377.9400        18.472400        2.3519700
       1400.2300        18.460200        2.2920300
       1422.8800        18.447300        2.2336200
       1445.8900        18.434000        2.1766900
       1469.2800        18.420100        2.1212200
       1493.0400        18.405900        2.0671700
       1517.1900        18.391200        2.0144900
       1541.7300        18.376100        1.9631500
       1566.6700        18.360700        1.9131200
       1592.0100        18.345000        1.8643700
       1617.7600        18.329100        1.8168500
       1643.9200        18.313000        1.7705500
       1670.5100        18.297000        1.7254300
       1697.5300        18.281600        1.6805500
       1724.9900        18.265200        1.6352200
       1752.8900        18.247200        1.5911000
       1781.2400        18.228500        1.5481800
       1810.0500        18.209100        1.5064100
       1839.3200        18.189200        1.4657700
       1869.0700        18.168700        1.4262300
       1899.3000        18.147600        1.3877500
       1930.0200        18.126000        1.3503200
       1961.2400        18.103900        1.3138900
       1992.9600        18.081300        1.2784400
       2025.2000        18.058100        1.2439500
       2057.9500        18.034400        1.2103900
       2091.2400        18.010100        1.1777400
       2125.0600        17.985200        1.1459700
       2159.4300        17.959600        1.1150500
       2194.3600        17.933500        1.0849700
       2229.8500        17.906600        1.0557000
       2265.9200        17.879100        1.0272200
       2302.5700        17.851000       0.99922700
       2339.8100        17.821600       0.97161800
       2377.6600        17.791000       0.94477300
       2416.1100        17.759200       0.91866900
       2455.1900        17.726000       0.89328700
       2494.9000        17.691500       0.86860600
       2535.2600        17.655300       0.84460700
       2576.2600        17.617500       0.82127100
       2617.9300        17.577800       0.79857900
       2660.2700        17.535900       0.77651500
       2703.3000        17.491600       0.75506000
       2747.0300        17.444500       0.73419800
       2791.4600        17.394400       0.71391200
       2836.6100        17.340600       0.69418800
       2882.4900        17.282700       0.67500700
       2929.1100        17.219900       0.65635700
       2976.4800        17.151100       0.63822300
       3024.6300        17.075500       0.62114300
       3073.5500        16.991900       0.60465400
       3123.2600        16.898300       0.58860100
       3173.7800        16.791800       0.57297600
       3225.1100        16.668800       0.55776500
       3277.2700        16.523600       0.54295900
       3330.2800        16.347500       0.52854400
       3384.1500        16.125500       0.51451300
       3438.8800        15.829600       0.50085400
       3494.5000        15.395400       0.48755700
       3551.0200        14.615600       0.47461600
       3608.3000        6.7682100       0.46204900
       3608.5000        6.7694500        4.4054000
       3666.8200        14.885300        4.2866600
       3726.1300        15.835900        4.1710400
       3786.4000        16.405900        4.0585300
       3847.6400        16.815100        3.9490700
       3909.8700        17.133500        3.8425500
       3973.1100        17.392900        3.7389100
       4037.3800        17.610500        3.6380500
       4102.6800        17.796700        3.5399400
       4169.0300        17.958500        3.4444500
       4236.4600        18.100600        3.3515500
       4304.9800        18.226500        3.2611500
       4374.6200        18.338800        3.1731900
       4445.3700        18.439500        3.0876000
       4517.2700        18.530200        3.0043100
       4590.3300        18.612100        2.9232800
       4664.5800        18.686500        2.8444300
       4740.0300        18.754100        2.7677100
       4816.6900        18.815600        2.6930600
       4894.6000        18.871700        2.6204200
       4973.7700        18.923000        2.5497400
       5054.2100        18.969900        2.4809700
       5135.9600        19.012800        2.4140500
       5219.0300        19.052100        2.3489300
       5303.4400        19.088100        2.2855800
       5389.2200        19.121200        2.2239300
       5476.3900        19.151600        2.1637000
       5564.9700        19.179300        2.1049000
       5654.9800        19.204600        2.0477000
       5746.4400        19.227500        1.9920600
       5839.3900        19.248500        1.9379300
       5933.8300        19.267500        1.8852600
       6029.8100        19.284800        1.8340300
       6127.3300        19.300600        1.7841900
       6226.4400        19.314800        1.7357100
       6327.1500        19.327700        1.6885400
       6429.4800        19.339300        1.6426600
       6533.4800        19.349800        1.5980200
       6639.1500        19.359300        1.5545900
       6746.5400        19.367700        1.5123500
       6855.6500        19.375300        1.4712500
       6966.5400        19.382100        1.4312700
       7079.2200        19.388100        1.3923700
       7193.7200        19.393600        1.3545300
       7310.0700        19.398700        1.3177200
       7428.3100        19.404100        1.2819200
       7548.4500        19.409400        1.2455600
       7670.5400        19.413100        1.2084900
       7794.6100        19.415000        1.1725200
       7920.6800        19.415900        1.1376300
       8048.7900        19.415800        1.1037700
       8178.9800        19.415100        1.0709200
       8311.2600        19.413600        1.0390500
       8445.6900        19.411500        1.0081300
       8582.2900        19.408700       0.97812300
       8721.1100        19.405200       0.94901400
       8862.1600        19.401000       0.92114500
       9005.5000        19.396600       0.89468400
       9151.1600        19.392100       0.86897300
       9299.1700        19.387200       0.84399900
       9449.5800        19.381800       0.81966600
       9602.4200        19.374600       0.79602300
       9757.7300        19.363300       0.77304900
       9915.5500        19.359800       0.76875500
       10075.900        19.367800       0.74646600
       10238.900        19.364600       0.72479100
       10404.500        19.361900       0.70371400
       10572.800        19.358800       0.68322000
       10743.800        19.355300       0.66329400
       10917.600        19.351500       0.64392100
       11094.200        19.347500       0.62508800
       11273.600        19.343200       0.60677900
       11455.900        19.338900       0.58898100
       11641.200        19.334400       0.57168100
       11829.500        19.329800       0.55486500
       12020.800        19.325100       0.53852000
       12215.300        19.320300       0.52263400
       12412.800        19.315400       0.50719600
       12613.600        19.310600       0.49219100
       12817.600        19.305600       0.47761000
       13025.000        19.300700       0.46344000
       13235.600        19.295700       0.44967100
       13449.700        19.290700       0.43629200
       13667.200        19.285700       0.42329100
       13888.300        19.280700       0.41065900
       14112.900        19.275600       0.39838600
       14341.200        19.270600       0.38646100
       14573.100        19.265700       0.37487600
       14808.900        19.260700       0.36362100
       15048.400        19.255700       0.35268600
       15291.800        19.250800       0.34206300
       15539.100        19.245900       0.33174300
       15790.400        19.241100       0.32171800
       16045.800        19.236200       0.31198000
       16305.400        19.231400       0.30252000
       16569.100        19.226700       0.29333100
       16837.100        19.222000       0.28440600
       17109.400        19.217300       0.27573600
       17386.100        19.212700       0.26731500
       17667.400        19.208100       0.25913500
       17953.100        19.203600       0.25119100
       18243.500        19.199100       0.24347400
       18538.600        19.194700       0.23598000
       18838.400        19.190300       0.22870100
       19143.100        19.186000       0.22163100
       19452.700        19.181700       0.21476500
       19767.400        19.177500       0.20809600
       20087.100        19.173300       0.20162200
       20412.000        19.169200       0.19533700
       20742.100        19.165200       0.18923900
       21077.600        19.161100       0.18332400
       21418.500        19.157200       0.17758500
       21765.000        19.153300       0.17201900
       22117.000        19.149400       0.16662000
       22474.700        19.145700       0.16138400
       22838.200        19.141900       0.15630500
       23207.600        19.138200       0.15137900
       23583.000        19.134600       0.14660300
       23964.400        19.131100       0.14197100
       24352.000        19.127600       0.13748000
       24745.900        19.124100       0.13312500
       25146.200        19.120800       0.12890300
       25552.900        19.117400       0.12480900
       25966.200        19.114200       0.12084000
       26386.100        19.110900       0.11699300
       26812.900        19.107800       0.11326300
       27246.600        19.104700       0.10964800
       27687.300        19.101700       0.10614400
       28135.100        19.098700       0.10274700
       28590.200        19.095700      0.099455400
       29052.600        19.092900      0.096265000
       29522.500        19.090000      0.093173100
       30000.000        19.087300      0.090176800
       30400.000        19.079200      0.083064900
       30800.000        19.077100      0.080857700
       31200.000        19.075000      0.078736500
       31500.000        19.073400      0.077199400
       31900.000        19.071500      0.075218400
       32300.000        19.069600      0.073311900
       32600.000        19.068200      0.071928700
       33000.000        19.066300      0.070144100
       33400.000        19.064600      0.068415700
       33800.000        19.062900      0.066749700
       34100.000        19.061600      0.065539300
       34500.000        19.059900      0.063975600
       34900.000        19.058400      0.062466500
       35300.000        19.056900      0.061006500
       35700.000        19.055300      0.059595400
       36030.000        19.054100      0.058467400
       36500.000        19.052400      0.056914700
       37000.000        19.050600      0.055329000
       37500.000        19.049000      0.053807900
       38000.000        19.047300      0.052348000
       38500.000        19.045700      0.050940100
       39000.000        19.044200      0.049587600
       39500.000        19.042700      0.048287600
       40000.000        19.041200      0.047037300
       40400.000        19.040200      0.046067800
       40800.000        19.039100      0.045127500
       41100.000        19.038200      0.044440700
       41500.000        19.037100      0.043548800
       41900.000        19.036100      0.042683200
       42300.000        19.035100      0.041842700
       43000.000        19.033400      0.040429500
       43800.000        19.031600      0.038893300
       44500.000        19.029900      0.037618800
       45300.000        19.028200      0.036234900
       46000.000        19.026800      0.035082900
       46500.000        19.025800      0.034292800
       47000.000        19.024800      0.033528700
       47500.000        19.023900      0.032789400
       48000.000        19.022900      0.032073900
       48500.000        19.022000      0.031381200
       49000.000        19.021100      0.030710300
       49500.000        19.020300      0.030060400
       50000.000        19.019400      0.029430500
       50500.000        19.018600      0.028816800
       51000.000        19.017800      0.028221700
       51500.000        19.017000      0.027644600
       52000.000        19.016200      0.027084600
       52500.000        19.015500      0.026541200
       53000.000        19.014800      0.026013700
       53500.000        19.014100      0.025501500
       54000.000        19.013400      0.025003900
       54500.000        19.012700      0.024520600
       55000.000        19.012000      0.024050900
       56000.000        19.010700      0.023147100
       56800.000        19.009800      0.022459500
       57530.000        19.008900      0.021858000
       58000.000        19.008300      0.021483200
       58500.000        19.007800      0.021094700
       59540.000        19.006600      0.020319200
       59800.000        19.006400      0.020131800
       60000.000        19.006100      0.019989400
       60800.000        19.005300      0.019432200
       61500.000        19.004700      0.018963200
       62300.000        19.003900      0.018447300
       63000.000        19.003200      0.018012600
       64000.000        19.002300      0.017417200
       65000.000        19.001400      0.016850300
       65900.000        19.000700      0.016361800
       66830.000        18.999900      0.015878600
       67400.000        18.999400      0.015592800
       68000.000        18.998900      0.015299900
       69000.000        18.998200      0.014829500
       70000.000        18.997500      0.014380100
       71000.000        18.996800      0.013948900
       72000.000        18.996200      0.013536500
       72800.000        18.995700      0.013219300
       73500.000        18.995200      0.012950600
       74200.000        18.994700      0.012689900
       74960.000        18.994200      0.012415400
       75500.000        18.993900      0.012225600
       76000.000        18.993600      0.012053700
       77110.000        18.993000      0.011684400
       77900.000        18.992600      0.011431600
       78600.000        18.992200      0.011214200
       79300.000        18.991900      0.011002900
       80000.000        18.991500      0.010797300
       80800.000        18.991100      0.010568600
       81500.000        18.990800      0.010374200
       82300.000        18.990400      0.010158400
       83000.000        18.990100     0.0099749700
       84000.000        18.989600     0.0097211800
       85000.000        18.989200     0.0094767400
       86500.000        18.988600     0.0091266400
       88000.000        18.988000     0.0087951600
       89000.000        18.987600     0.0085838800
       90000.000        18.987200     0.0083799500
       91500.000        18.986700     0.0080866500
       93000.000        18.986100     0.0078081300
       94000.000        18.985800     0.0076301900
       95000.000        18.985400     0.0074581300
       96500.000        18.985000     0.0072104900
       98000.000        18.984600     0.0069747200
       99000.000        18.984300     0.0068237600
       99500.000        18.984100     0.0067500700
       100000.00        18.984000     0.0066775400
