;  Atomic scattering factors for Ne.
;   
;  Concatenation of data from CXRO <http://www-cxro.lbl.gov>
;  and LLNL <http://www-phys.llnl.gov/V_Div/scattering/asf.html>
;  
;  E (eV) f1 f2
;---------------
       10.000000       -9999.0000    4.7957600e-16
       10.161700       -9999.0000    4.8733300e-16
       10.326100       -9999.0000    4.9521500e-16
       10.493100       -9999.0000    5.0322500e-16
       10.662800       -9999.0000    5.1136400e-16
       10.835300       -9999.0000    5.1963500e-16
       11.010600       -9999.0000    5.2804000e-16
       11.188600       -9999.0000    5.3658000e-16
       11.369600       -9999.0000    5.4525900e-16
       11.553500       -9999.0000    5.5407800e-16
       11.740400       -9999.0000    5.6304000e-16
       11.930300       -9999.0000    5.7214700e-16
       12.123200       -9999.0000    5.8140100e-16
       12.319300       -9999.0000    5.9080500e-16
       12.518600       -9999.0000    6.0036100e-16
       12.721000       -9999.0000    6.1007100e-16
       12.926800       -9999.0000    6.1993800e-16
       13.135900       -9999.0000    6.2996500e-16
       13.348300       -9999.0000    6.4015500e-16
       13.564200       -9999.0000    6.5050900e-16
       13.783600       -9999.0000    6.6103000e-16
       14.006600       -9999.0000    6.7172200e-16
       14.233100       -9999.0000    6.8258600e-16
       14.463300       -9999.0000    6.9362700e-16
       14.697300       -9999.0000    7.0484600e-16
       14.935000       -9999.0000    7.1624600e-16
       15.176500       -9999.0000    7.2783100e-16
       15.422000       -9999.0000    7.3960300e-16
       15.671400       -9999.0000    7.5156500e-16
       15.924900       -9999.0000    7.6372100e-16
       16.182500       -9999.0000    7.7607400e-16
       16.444200       -9999.0000    7.8862600e-16
       16.710200       -9999.0000    8.0138200e-16
       16.980500       -9999.0000    8.1434300e-16
       17.255100       -9999.0000    8.2751500e-16
       17.534200       -9999.0000    8.4089900e-16
       17.817800       -9999.0000    8.5450000e-16
       18.106000       -9999.0000    8.6832100e-16
       18.398900       -9999.0000    8.8236500e-16
       18.696400       -9999.0000    8.9663700e-16
       18.998800       -9999.0000    9.1113900e-16
       19.306100       -9999.0000    9.2587600e-16
       19.618400       -9999.0000    9.4085200e-16
       19.935700       -9999.0000    9.5606900e-16
       20.258200       -9999.0000    9.7153300e-16
       20.585800       -9999.0000    9.8724700e-16
       20.918800       -9999.0000    1.0032100e-15
       21.257100       -9999.0000    1.0194400e-15
       21.500000       -9999.0000    1.0310900e-15
       21.700000       -9999.0000        1.7913900
       21.950300       -9999.0000        1.9564300
       22.305300       -9999.0000        2.2131500
       22.666100       -9999.0000        2.5007900
       23.032700       -9999.0000        2.6488900
       23.405300       -9999.0000        2.7860600
       23.783800       -9999.0000        2.9013600
       24.168500       -9999.0000        3.0116800
       24.559400       -9999.0000        3.1081700
       24.956600       -9999.0000        3.2007400
       25.360300       -9999.0000        3.2806100
       25.770500       -9999.0000        3.3624700
       26.187300       -9999.0000        3.4463800
       26.610900       -9999.0000        3.5164800
       27.041300       -9999.0000        3.5744300
       27.478600       -9999.0000        3.6333200
       27.923100       -9999.0000        3.6931900
       28.374700       -9999.0000        3.7254100
       28.833700       -9999.0000        3.7545400
       29.300000      -0.72278600        3.7839000
       29.773900      -0.63832500        3.8066700
       30.255500      -0.57257600        3.8077700
       30.744900      -0.54716900        3.8088700
       31.242100      -0.52723800        3.8695300
       31.747500      -0.48827900        3.9340300
       32.260900      -0.43988500        4.0009900
       32.782700      -0.38565900        4.0690900
       33.313000      -0.32116000        4.1383300
       33.851800      -0.25223500        4.1984500
       34.399300      -0.18689100        4.2546900
       34.955700      -0.12262200        4.3117000
       35.521100     -0.058201200        4.3694600
       36.095600     0.0067459600        4.4280000
       36.679400      0.071637800        4.4885300
       37.272700       0.13963900        4.5528800
       37.875500       0.21283300        4.6181600
       38.488200       0.29100500        4.6843700
       39.110700       0.37716500        4.7515300
       39.743200       0.47988100        4.8174400
       40.386100       0.58316200        4.8534800
       41.039300       0.67558400        4.8898000
       41.703100       0.78521400        4.9263800
       42.377600       0.88662700        4.9233000
       43.063000       0.95066100        4.9198100
       43.759500       0.99536900        4.9291500
       44.467300        1.0426000        4.9667900
       45.186500        1.0986000        5.0047200
       45.917400        1.1550900        5.0429400
       46.660000        1.2105600        5.0837500
       47.414700        1.2677000        5.1297900
       48.181600        1.3269000        5.1762400
       48.960900        1.3809800        5.2231200
       49.752800        1.4304300        5.2799100
       50.557600        1.4901100        5.3568300
       51.375300        1.5642200        5.4348800
       52.206200        1.6565000        5.5140700
       53.050600        1.7592900        5.5790900
       53.908700        1.8592400        5.6346900
       54.780600        1.9596000        5.6908500
       55.666700        2.0645800        5.7475600
       56.567000        2.1817200        5.8048400
       57.482000        2.3044400        5.8393300
       58.411700        2.4196600        5.8677100
       59.356400        2.5313400        5.8962300
       60.316500        2.6526900        5.9248900
       61.292100        2.7661000        5.9178600
       62.283400        2.8427500        5.9099400
       63.290800        2.9141000        5.9510700
       64.314500        3.0048100        5.9925000
       65.354700        3.1032400        6.0342100
       66.411800        3.2081000        6.0762100
       67.485900        3.3197000        6.1184900
       68.577500        3.4386800        6.1610800
       69.686700        3.5800000        6.2039600
       70.813800        3.7359300        6.2206100
       71.959100        3.8760200        6.2042900
       73.123000        3.9969300        6.1880100
       74.305700        4.1054500        6.1767100
       75.507600        4.2123000        6.1749700
       76.728900        4.3233200        6.1732300
       77.969900        4.4344900        6.1714900
       79.231000        4.5464300        6.1695100
       80.512500        4.6593000        6.1672900
       81.814700        4.7736300        6.1650700
       83.138000        4.8904700        6.1628600
       84.482700        5.0115000        6.1606500
       85.849100        5.1433500        6.1584300
       87.237700        5.2792300        6.1319000
       88.648700        5.4039300        6.0995900
       90.082500        5.5212600        6.0674500
       91.539500        5.6357900        6.0354800
       93.020100        5.7484100        6.0036700
       94.524600        5.8600200        5.9720400
       96.053500        5.9675400        5.9405700
       97.607100        6.0710200        5.9164000
       99.185800        6.2102600        5.9158600
       100.79000        6.3623900        5.8602200
       102.42000        6.4900500        5.8051100
       104.07700        6.6233500        5.7453300
       105.76000        6.7485100        5.6604500
       107.47100        6.8566900        5.5768100
       109.20900        6.9563700        5.4944200
       110.97500        7.0499000        5.4132400
       112.77000        7.1387000        5.3332600
       114.59400        7.2240600        5.2544600
       116.44800        7.3082200        5.1752200
       118.33100        7.3880000        5.0921700
       120.24500        7.4610600        5.0104500
       122.19000        7.5305300        4.9300500
       124.16600        7.5967900        4.8509300
       126.17500        7.6603400        4.7730900
       128.21500        7.7216400        4.6964800
       130.28900        7.7810300        4.6211200
       132.39700        7.8424600        4.5469700
       134.53800        7.9016800        4.4660600
       136.71400        7.9531900        4.3862000
       138.92500        8.0015200        4.3077700
       141.17200        8.0468500        4.2307400
       143.45600        8.0895100        4.1550900
       145.77600        8.1297100        4.0807900
       148.13400        8.1675400        4.0078200
       150.53000        8.2030100        3.9361500
       152.96400        8.2361200        3.8657700
       155.43900        8.2633000        3.7966400
       157.95300        8.2878100        3.7361900
       160.50700        8.3171400        3.6821200
       163.10300        8.3501500        3.6288200
       165.74200        8.3858800        3.5763000
       168.42200        8.4248800        3.5245300
       171.14600        8.4691800        3.4735200
       173.91500        8.5270900        3.4232400
       176.72700        8.6056600        3.3397100
       179.58600        8.6327300        3.1873700
       182.49100        8.6096500        3.1289300
       185.44200        8.6171300        3.0698900
       188.44200        8.6284500        3.0116300
       191.48900        8.6410300        2.9542600
       194.58700        8.6539600        2.8986800
       197.73400        8.6674400        2.8443400
       200.93200        8.6813200        2.7911500
       204.18200        8.6956500        2.7390400
       207.48500        8.7107700        2.6878800
       210.84000        8.7282200        2.6376500
       214.25100        8.7463500        2.5815800
       217.71600        8.7606400        2.5253000
       221.23700        8.7722300        2.4691600
       224.81600        8.7817400        2.4143000
       228.45200        8.7897900        2.3606500
       232.14700        8.7966100        2.3081900
       235.90200        8.8023500        2.2568600
       239.71700        8.8071500        2.2066900
       243.59500        8.8111100        2.1576500
       247.53500        8.8143600        2.1097200
       251.53800        8.8169700        2.0628200
       255.60700        8.8189600        2.0169400
       259.74100        8.8204600        1.9721800
       263.94200        8.8216400        1.9283600
       268.21100        8.8224900        1.8854300
       272.54900        8.8234600        1.8435800
       276.95700        8.8249300        1.8014200
       281.43700        8.8255200        1.7586500
       285.98900        8.8244700        1.7161000
       290.61500        8.8221700        1.6744400
       295.31500        8.8188600        1.6337300
       300.09200        8.8147600        1.5940500
       304.94500        8.8100100        1.5553500
       309.87800        8.8046800        1.5176100
       314.89000        8.7988000        1.4807100
       319.98300        8.7923800        1.4447100
       325.15800        8.7854900        1.4096200
       330.41800        8.7781700        1.3753700
       335.76200        8.7704300        1.3419500
       341.19200        8.7623200        1.3093600
       346.71100        8.7538500        1.2775500
       352.31900        8.7450500        1.2465100
       358.01700        8.7359400        1.2162300
       363.80800        8.7265600        1.1866900
       369.69200        8.7169400        1.1578600
       375.67200        8.7071500        1.1297300
       381.74800        8.6976100        1.1022900
       387.92200        8.6882400        1.0747700
       394.19700        8.6778800        1.0463500
       400.57300        8.6662100        1.0188600
       407.05200        8.6539000       0.99216100
       413.63500        8.6410000       0.96616100
       420.32600        8.6275500       0.94083900
       427.12400        8.6135700       0.91618100
       434.03200        8.5990800       0.89217200
       441.05200        8.5841000       0.86879200
       448.18600        8.5686600       0.84600400
       455.43500        8.5527000       0.82371200
       462.80200        8.5361500       0.80195300
       470.28700        8.5189900       0.78073900
       477.89400        8.5012200       0.76008200
       485.62300        8.4828200       0.73997300
       493.47800        8.4637700       0.72039600
       501.45900        8.4440400       0.70133600
       509.57000        8.4235900       0.68278900
       517.81200        8.4023900       0.66474000
       526.18700        8.3803700       0.64717700
       534.69800        8.3575000       0.63012900
       543.34600        8.3337800       0.61355000
       552.13400        8.3091400       0.59739200
       561.06500        8.2834300       0.58144600
       570.13900        8.2563400       0.56586900
       579.36100        8.2278500       0.55098900
       588.73200        8.1981000       0.53659000
       598.25400        8.1669400       0.52262300
       607.93000        8.1341900       0.50902200
       617.76300        8.0997100       0.49578200
       627.75500        8.0633300       0.48285800
       637.90800        8.0249000       0.46986600
       648.22600        7.9836900       0.45668700
       658.71100        7.9388600       0.44353200
       669.36500        7.8899300       0.43075700
       680.19100        7.8365100       0.41956400
       691.19300        7.7793200       0.40959700
       702.37200        7.7181300       0.40018500
       713.73300        7.6515200       0.39045300
       725.27700        7.5776600       0.38059500
       737.00800        7.4952100       0.37096300
       748.92800        7.4023100       0.36159100
       761.04200        7.2964700       0.35246000
       773.35100        7.1741500       0.34348100
       785.85900        7.0300000       0.33449000
       798.57000        6.8557300       0.32553800
       811.48600        6.6382000       0.31682600
       824.61100        6.3535800       0.30834600
       837.94900        5.9515500       0.30009400
       851.50200        5.2935100       0.29206300
       865.27400        3.5970800       0.28424800
       870.10000       -1.5978600       0.28158800
       870.30000       -1.5936800        4.5116100
       879.26900        4.5604500        4.4444900
       893.49100        5.9146200        4.3414600
       907.94300        6.6267600        4.2407800
       922.62800        7.1180400        4.1424000
       937.55100        7.4944500        4.0463200
       952.71500        7.7996000        3.9524700
       968.12400        8.0559600        3.8607800
       983.78300        8.2768700        3.7712200
       999.69500        8.4712100        3.6831000
       1015.8600        8.6447600        3.5963700
       1032.2900        8.7998200        3.5058300
       1048.9900        8.9363200        3.4178100
       1065.9600        9.0589000        3.3323100
       1083.2000        9.1697800        3.2489600
       1100.7200        9.2705400        3.1676900
       1118.5200        9.3624500        3.0884300
       1136.6100        9.4465500        3.0111900
       1155.0000        9.5237500        2.9358700
       1173.6800        9.5947800        2.8624300
       1192.6600        9.6602800        2.7908300
       1211.9500        9.7208400        2.7210200
       1231.5500        9.7769900        2.6529500
       1251.4700        9.8292400        2.5862400
       1271.7200        9.8776100        2.5208800
       1292.2900        9.9222300        2.4567900
       1313.1900        9.9633800        2.3942800
       1334.4300        10.001400        2.3333700
       1356.0100        10.036600        2.2740300
       1377.9400        10.069300        2.2161800
       1400.2300        10.099700        2.1598000
       1422.8800        10.127900        2.1048400
       1445.8900        10.154300        2.0512800
       1469.2800        10.179000        1.9989000
       1493.0400        10.202300        1.9475800
       1517.1900        10.224000        1.8963900
       1541.7300        10.243200        1.8463700
       1566.6700        10.260700        1.7976600
       1592.0100        10.276700        1.7502200
       1617.7600        10.291200        1.7040500
       1643.9200        10.304500        1.6591200
       1670.5100        10.316700        1.6153500
       1697.5300        10.327800        1.5727300
       1724.9900        10.338300        1.5312400
       1752.8900        10.348000        1.4901700
       1781.2400        10.356300        1.4499600
       1810.0500        10.363600        1.4106000
       1839.3200        10.369900        1.3723500
       1869.0700        10.375300        1.3351300
       1899.3000        10.380000        1.2989200
       1930.0200        10.384000        1.2637100
       1961.2400        10.387400        1.2294400
       1992.9600        10.390100        1.1960800
       2025.2000        10.392600        1.1641000
       2057.9500        10.395000        1.1321800
       2091.2400        10.396400        1.1009700
       2125.0600        10.397300        1.0706200
       2159.4300        10.397800        1.0411000
       2194.3600        10.397900        1.0122300
       2229.8500        10.397600       0.98413600
       2265.9200        10.396900       0.95677000
       2302.5700        10.395800       0.93010300
       2339.8100        10.394400       0.90412700
       2377.6600        10.392700       0.87882500
       2416.1100        10.390700       0.85418800
       2455.1900        10.388500       0.83018700
       2494.9000        10.386000       0.80681700
       2535.2600        10.383300       0.78406100
       2576.2600        10.380400       0.76190100
       2617.9300        10.377400       0.74032100
       2660.2700        10.374100       0.71932000
       2703.3000        10.370700       0.69887000
       2747.0300        10.367100       0.67896500
       2791.4600        10.363400       0.65958900
       2836.6100        10.359600       0.64072600
       2882.4900        10.355700       0.62237800
       2929.1100        10.351600       0.60450400
       2976.4800        10.347500       0.58711500
       3024.6300        10.343300       0.57019300
       3073.5500        10.339000       0.55372800
       3123.2600        10.334700       0.53770300
       3173.7800        10.330300       0.52211600
       3225.1100        10.325900       0.50695600
       3277.2700        10.321400       0.49219600
       3330.2800        10.316900       0.47782400
       3384.1500        10.312400       0.46386100
       3438.8800        10.307800       0.45026800
       3494.5000        10.303200       0.43703900
       3551.0200        10.298600       0.42418000
       3608.4600        10.294000       0.41166000
       3666.8200        10.289400       0.39949500
       3726.1300        10.284800       0.38764600
       3786.4000        10.280200       0.37613600
       3847.6400        10.275600       0.36492900
       3909.8700        10.271100       0.35403800
       3973.1100        10.266500       0.34343400
       4037.3800        10.262000       0.33306800
       4102.6800        10.257400       0.32305800
       4169.0300        10.252900       0.31332100
       4236.4600        10.248300       0.30385100
       4304.9800        10.243900       0.29466300
       4374.6200        10.239400       0.28572900
       4445.3700        10.235000       0.27704000
       4517.2700        10.230600       0.26860300
       4590.3300        10.226300       0.26040400
       4664.5800        10.222000       0.25245500
       4740.0300        10.217700       0.24471200
       4816.6900        10.213500       0.23720800
       4894.6000        10.209300       0.22992000
       4973.7700        10.205200       0.22283800
       5054.2100        10.201100       0.21596300
       5135.9600        10.197000       0.20928900
       5219.0300        10.193000       0.20280900
       5303.4400        10.189100       0.19651900
       5389.2200        10.185200       0.19041200
       5476.3900        10.181300       0.18448500
       5564.9700        10.177500       0.17873500
       5654.9800        10.173800       0.17315100
       5746.4400        10.170100       0.16773500
       5839.3900        10.166400       0.16247800
       5933.8300        10.162800       0.15737900
       6029.8100        10.159300       0.15243100
       6127.3300        10.155800       0.14763200
       6226.4400        10.152400       0.14297400
       6327.1500        10.149000       0.13845700
       6429.4800        10.145700       0.13407700
       6533.4800        10.142400       0.12982700
       6639.1500        10.139200       0.12570600
       6746.5400        10.136000       0.12170900
       6855.6500        10.132900       0.11783400
       6966.5400        10.129800       0.11407400
       7079.2200        10.126800       0.11043100
       7193.7200        10.123900       0.10689800
       7310.0700        10.121000       0.10347400
       7428.3100        10.118100       0.10015400
       7548.4500        10.115300      0.096935000
       7670.5400        10.112600      0.093814000
       7794.6100        10.109900      0.090790800
       7920.6800        10.107200      0.087858400
       8048.7900        10.104600      0.085018000
       8178.9800        10.102100      0.082265600
       8311.2600        10.099600      0.079598500
       8445.6900        10.097100      0.077013500
       8582.2900        10.094700      0.074508000
       8721.1100        10.092300      0.072082500
       8862.1600        10.090000      0.069732200
       9005.5000        10.087800      0.067455100
       9151.1600        10.085500      0.065245800
       9299.1700        10.083400      0.063109600
       9449.5800        10.081200      0.061039200
       9602.4200        10.079100      0.059032400
       9757.7300        10.077100      0.057090700
       9915.5500        10.075100      0.055210700
       10075.900        10.073100      0.053389100
       10238.900        10.071200      0.051625100
       10404.500        10.069300      0.049916900
       10572.800        10.067500      0.048263000
       10743.800        10.065700      0.046661600
       10917.600        10.063900      0.045111200
       11094.200        10.062200      0.043610300
       11273.600        10.060500      0.042157200
       11455.900        10.058800      0.040750700
       11641.200        10.057200      0.039389300
       11829.500        10.055600      0.038071500
       12020.800        10.054100      0.036796100
       12215.300        10.052600      0.035561700
       12412.800        10.051100      0.034367200
       12613.600        10.049600      0.033211300
       12817.600        10.048200      0.032092800
       13025.000        10.046800      0.031010500
       13235.600        10.045500      0.029963400
       13449.700        10.044200      0.028950400
       13667.200        10.042900      0.027970300
       13888.300        10.041600      0.027022300
       14112.900        10.040400      0.026105200
       14341.200        10.039200      0.025218200
       14573.100        10.038000      0.024360300
       14808.900        10.036900      0.023530600
       15048.400        10.035700      0.022728200
       15291.800        10.034600      0.021952200
       15539.100        10.033600      0.021202000
       15790.400        10.032500      0.020476500
       16045.800        10.031500      0.019775100
       16305.400        10.030500      0.019097000
       16569.100        10.029500      0.018441500
       16837.100        10.028600      0.017807800
       17109.400        10.027700      0.017195300
       17386.100        10.026800      0.016603400
       17667.400        10.025900      0.016031200
       17953.100        10.025000      0.015478400
       18243.500        10.024200      0.014944100
       18538.600        10.023400      0.014427900
       18838.400        10.022600      0.013929100
       19143.100        10.021800      0.013447200
       19452.700        10.021000      0.012981700
       19767.400        10.020300      0.012532000
       20087.100        10.019500      0.012100500
       20412.000        10.018800      0.011681100
       20742.100        10.018200      0.011276300
       21077.600        10.017500      0.010885500
       21418.500        10.016800      0.010508300
       21765.000        10.016200      0.010144200
       22117.000        10.015600     0.0097927000
       22474.700        10.015000     0.0094533800
       22838.200        10.014400     0.0091258100
       23207.600        10.013800     0.0088095800
       23583.000        10.013200     0.0085042800
       23964.400        10.012700     0.0082095600
       24352.000        10.012200     0.0079250100
       24745.900        10.011700     0.0076503100
       25146.200        10.011200     0.0073850800
       25552.900        10.010700     0.0071290300
       25966.200        10.010200     0.0068818100
       26386.100        10.009700     0.0066431100
       26812.900        10.009300     0.0064126600
       27246.600        10.008800     0.0061901400
       27687.300        10.008400     0.0059753100
       28135.100        10.008000     0.0057678700
       28590.200        10.007600     0.0055675900
       29052.600        10.007200     0.0053742000
       29522.500        10.006800     0.0051874800
       30000.000        10.006400     0.0050071800
       30400.000        10.006000     0.0049152100
       30800.000        10.005700     0.0047742500
       31200.000        10.005400     0.0046390700
       31500.000        10.005200     0.0045412900
       31900.000        10.005000     0.0044155100
       32300.000        10.004700     0.0042947100
       32600.000        10.004500     0.0042072300
       33000.000        10.004200     0.0040945500
       33400.000        10.004000     0.0039862000
       33800.000        10.003800     0.0038819500
       34100.000        10.003600     0.0038063400
       34500.000        10.003400     0.0037088000
       34900.000        10.003200     0.0036148400
       35300.000        10.003000     0.0035239200
       35700.000        10.002800     0.0034361600
       36030.000        10.002600     0.0033661100
       36500.000        10.002400     0.0032698700
       37000.000        10.002200     0.0031717900
       37500.000        10.001900     0.0030779100
       38000.000        10.001700     0.0029880000
       38500.000        10.001500     0.0029018400
       39000.000        10.001300     0.0028192300
       39500.000        10.001100     0.0027399800
       40000.000        10.001000     0.0026639100
       40800.000        10.000700     0.0025479100
       41500.000        10.000500     0.0024523000
       42300.000        10.000300     0.0023492500
       43000.000        10.000100     0.0022641400
       43800.000        9.9998300     0.0021722200
       44500.000        9.9996200     0.0020961500
       45300.000        9.9993900     0.0020137400
       46000.000        9.9991800     0.0019452700
       46500.000        9.9990700     0.0018984100
       47000.000        9.9989700     0.0018531500
       47500.000        9.9988600     0.0018094400
       48000.000        9.9987500     0.0017672000
       48500.000        9.9986400     0.0017263700
       49000.000        9.9985300     0.0016868800
       49500.000        9.9984200     0.0016486900
       50000.000        9.9983100     0.0016117300
       51000.000        9.9981500     0.0015411300
       52000.000        9.9979900     0.0014749000
       53000.000        9.9978300     0.0014127000
       54000.000        9.9976800     0.0013542200
       55000.000        9.9975200     0.0012991600
       56000.000        9.9973600     0.0012472000
       56800.000        9.9972300     0.0012077600
       57530.000        9.9971100     0.0011733300
       58000.000        9.9970500     0.0011519000
       58500.000        9.9969900     0.0011297200
       59540.000        9.9968600     0.0010855100
       59800.000        9.9968300     0.0010748500
       60000.000        9.9968100     0.0010667500
       60800.000        9.9967300     0.0010351500
       61500.000        9.9966500     0.0010086000
       62300.000        9.9965700    0.00097943700
       63000.000        9.9965000    0.00095490600
       64000.000        9.9964000    0.00092137000
       65000.000        9.9963000    0.00088950400
       65900.000        9.9962100    0.00086216500
       66830.000        9.9961200    0.00083516900
       67400.000        9.9960700    0.00081922100
       68000.000        9.9960200    0.00080290300
       69000.000        9.9959400    0.00077673000
       70000.000        9.9958600    0.00075176800
       71000.000        9.9957900    0.00072791700
       72000.000        9.9957200    0.00070514000
       73500.000        9.9956200    0.00067285500
       74960.000        9.9955200    0.00064343700
       76000.000        9.9954500    0.00062359800
       77110.000        9.9953900    0.00060338100
       78600.000        9.9953100    0.00057769600
       79300.000        9.9952700    0.00056617000
       80000.000        9.9952300    0.00055497200
       81500.000        9.9951600    0.00053203000
       83000.000        9.9951000    0.00051042900
       84000.000        9.9950500    0.00049672400
       85000.000        9.9950100    0.00048354200
       88000.000        9.9948700    0.00044688900
       90000.000        9.9947800    0.00042463800
       93000.000        9.9946900    0.00039416600
       95000.000        9.9946200    0.00037557300
       98000.000        9.9945300    0.00034998900
       99000.000        9.9944900    0.00034201800
       100000.00        9.9944600    0.00033430600
