;  Atomic scattering factors for Ni.
;   
;  Concatenation of data from CXRO <http://www-cxro.lbl.gov>
;  and LLNL <http://www-phys.llnl.gov/V_Div/scattering/asf.html>
;  
;  E (eV) f1 f2
;---------------
       10.000000       -9999.0000        1.3772700
       10.161700       -9999.0000        1.3806400
       10.326100       -9999.0000        1.3840100
       10.493100       -9999.0000        1.3874000
       10.662800       -9999.0000        1.3907900
       10.835300       -9999.0000        1.3941900
       11.010600       -9999.0000        1.3998200
       11.188600       -9999.0000        1.4410400
       11.369600       -9999.0000        1.4834700
       11.553500       -9999.0000        1.5271600
       11.740400       -9999.0000        1.5721200
       11.930300       -9999.0000        1.6184100
       12.123200       -9999.0000        1.6666300
       12.319300       -9999.0000        1.7166200
       12.518600       -9999.0000        1.7681000
       12.721000       -9999.0000        1.8211300
       12.926800       -9999.0000        1.8757500
       13.135900       -9999.0000        1.9314200
       13.348300       -9999.0000        1.9884200
       13.564200       -9999.0000        2.0471000
       13.783600       -9999.0000        2.1075200
       14.006600       -9999.0000        2.1697100
       14.233100       -9999.0000        2.2320400
       14.463300       -9999.0000        2.2858200
       14.697300       -9999.0000        2.3409100
       14.935000       -9999.0000        2.3973200
       15.176500       -9999.0000        2.4550900
       15.422000       -9999.0000        2.5142500
       15.671400       -9999.0000        2.5714000
       15.924900       -9999.0000        2.6210300
       16.182500       -9999.0000        2.6716200
       16.444200       -9999.0000        2.7231800
       16.710200       -9999.0000        2.7757400
       16.980500       -9999.0000        2.8293100
       17.255100       -9999.0000        2.8839200
       17.534200       -9999.0000        2.9300700
       17.817800       -9999.0000        2.9711000
       18.106000       -9999.0000        3.0127100
       18.398900       -9999.0000        3.0549100
       18.696400       -9999.0000        3.0976900
       18.998800       -9999.0000        3.1410700
       19.306100       -9999.0000        3.1147000
       19.618400       -9999.0000        3.0919200
       19.935700       -9999.0000        3.0999000
       20.258200       -9999.0000        3.1079000
       20.585800       -9999.0000        3.1159200
       20.918800       -9999.0000        3.1249100
       21.257100       -9999.0000        3.1697400
       21.600900       -9999.0000        3.2152100
       21.950300       -9999.0000        3.2613300
       22.305300       -9999.0000        3.3467700
       22.666100       -9999.0000        3.4442900
       23.032700       -9999.0000        3.5446500
       23.405300       -9999.0000        3.6479300
       23.783800       -9999.0000        3.7542200
       24.168500       -9999.0000        3.8059300
       24.559400       -9999.0000        3.8331300
       24.956600       -9999.0000        3.8605100
       25.360300       -9999.0000        3.8880900
       25.770500       -9999.0000        3.9158700
       26.187300       -9999.0000        3.9068500
       26.610900       -9999.0000        3.8846800
       27.041300       -9999.0000        3.8626300
       27.478600       -9999.0000        3.8407000
       27.923100       -9999.0000        3.8141200
       28.374700       -9999.0000        3.7786300
       28.833700       -9999.0000        3.7434700
       29.300000        4.0748900        3.7086400
       29.773900        4.1187800        3.6741300
       30.255500        4.1555900        3.6399400
       30.744900        4.1879900        3.6094500
       31.242100        4.2184400        3.5799100
       31.747500        4.2456900        3.5506200
       32.260900        4.2695400        3.5215700
       32.782700        4.2899100        3.4927500
       33.313000        4.3066500        3.4641700
       33.851800        4.3193600        3.4358200
       34.399300        4.3270600        3.4077100
       34.955700        4.3303800        3.3822800
       35.521100        4.3310300        3.3601700
       36.095600        4.3296500        3.3381900
       36.679400        4.3247900        3.3163600
       37.272700        4.3155000        3.2946700
       37.875500        4.3002000        3.2731200
       38.488200        4.2746800        3.2517200
       39.110700        4.2442500        3.2503400
       39.743200        4.2183000        3.2500500
       40.386100        4.1940600        3.2497600
       41.039300        4.1674300        3.2494700
       41.703100        4.1354100        3.2491800
       42.377600        4.0941400        3.2488800
       43.063000        4.0477000        3.2649900
       43.759500        4.0065400        3.2897200
       44.467300        3.9688500        3.3146400
       45.186500        3.9312200        3.3397600
       45.917400        3.8920300        3.3650600
       46.660000        3.8503400        3.3905500
       47.414700        3.7983100        3.4162400
       48.181600        3.7378200        3.4485400
       48.960900        3.6800700        3.5008200
       49.752800        3.6282800        3.5538900
       50.557600        3.5776700        3.6077800
       51.375300        3.5258800        3.6624700
       52.206200        3.4715300        3.7180000
       53.050600        3.4142000        3.7775300
       53.908700        3.3549700        3.8391000
       54.780600        3.2924900        3.9016800
       55.666700        3.2252800        3.9652800
       56.567000        3.1525000        4.0299100
       57.482000        3.0782000        4.0944400
       58.411700        2.9853500        4.1402700
       59.356400        2.8633500        4.1866200
       60.316500        2.7007700        4.2334900
       61.292100        2.4501100        4.3089400
       62.283400        2.1882900        4.4741500
       63.290800        1.9036300        4.6456800
       64.314500        1.5227800        4.8237900
       65.354700        1.0005000        5.3592000
       66.411800       0.71290000        6.1685800
       67.485900       0.69446700        7.1002100
       68.577500        1.1077200        8.1725200
       69.686700        1.7575100        8.5001600
       70.813800        2.2622800        8.7961100
       71.959100        2.7146900        9.0810300
       73.123000        3.1579700        9.2020600
       74.305700        3.4964300        9.3247100
       75.507600        3.8141500        9.4489900
       76.728900        4.1409100        9.5749300
       77.969900        4.4612400        9.6489900
       79.231000        4.7559400        9.7054900
       80.512500        5.0311800        9.7623200
       81.814700        5.3015000        9.8195000
       83.138000        5.5862700        9.8769900
       84.482700        5.8814500        9.8681300
       85.849100        6.1273500        9.8430900
       87.237700        6.3484600        9.8181100
       88.648700        6.5511900        9.7932000
       90.082500        6.7389400        9.7683500
       91.539500        6.9061700        9.7435600
       93.020100        7.0489600        9.7307500
       94.524600        7.1968100        9.7437700
       96.053500        7.3536100        9.7568100
       97.607100        7.5102700        9.7698700
       99.185800        7.6664100        9.7829500
       100.79000        7.8218900        9.7960500
       102.42000        7.9768200        9.8091500
       104.07700        8.1316000        9.8222800
       105.76000        8.2871200        9.8354300
       107.47100        8.4464700        9.8486000
       109.20900        8.6049400        9.8498100
       110.97500        8.7593300        9.8482000
       112.77000        8.9070300        9.8466000
       114.59400        9.0524000        9.8449900
       116.44800        9.1957100        9.8433900
       118.33100        9.3381300        9.8417900
       120.24500        9.4808700        9.8401900
       122.19000        9.6252300        9.8277600
       124.16600        9.7581900        9.8120400
       126.17500        9.8839700        9.7963400
       128.21500        10.002800        9.7806500
       130.28900        10.113800        9.7650100
       132.39700        10.209900        9.7493800
       134.53800        10.268200        9.7337700
       136.71400        10.332700        9.7936500
       138.92500        10.431600        9.8600700
       141.17200        10.547400        9.9269200
       143.45600        10.675700        9.9942500
       145.77600        10.815200        10.062000
       148.13400        10.965700        10.130300
       150.53000        11.128200        10.199000
       152.96400        11.304900        10.268100
       155.43900        11.499200        10.337800
       157.95300        11.751100        10.397800
       160.50700        12.004200        10.366800
       163.10300        12.201700        10.335900
       165.74200        12.388900        10.305100
       168.42200        12.568800        10.274400
       171.14600        12.743500        10.243800
       173.91500        12.914200        10.213300
       176.72700        13.082300        10.182900
       179.58600        13.248400        10.152500
       182.49100        13.413400        10.122300
       185.44200        13.578000        10.092100
       188.44200        13.742900        10.062100
       191.48900        13.909100        10.032100
       194.58700        14.077600        10.002200
       197.73400        14.249700        9.9724200
       200.93200        14.435100        9.9427100
       204.18200        14.638800        9.9130800
       207.48500        14.844000        9.8270900
       210.84000        15.023300        9.7313700
       214.25100        15.186600        9.6365800
       217.71600        15.340000        9.5427200
       221.23700        15.486000        9.4497700
       224.81600        15.625900        9.3577300
       228.45200        15.760800        9.2665900
       232.14700        15.891300        9.1763200
       235.90200        16.017900        9.0869400
       239.71700        16.141200        8.9984400
       243.59500        16.261600        8.9107900
       247.53500        16.379400        8.8239900
       251.53800        16.495000        8.7380400
       255.60700        16.608800        8.6529400
       259.74100        16.721200        8.5686500
       263.94200        16.832800        8.4852000
       268.21100        16.944000        8.4025500
       272.54900        17.055900        8.3207000
       276.95700        17.168400        8.2396600
       281.43700        17.296100        8.1594000
       285.98900        17.428000        8.0694700
       290.61500        17.553500        7.9430600
       295.31500        17.658200        7.8186500
       300.09200        17.752200        7.6961700
       304.94500        17.838300        7.5756200
       309.87800        17.918200        7.4569500
       314.89000        17.992600        7.3401500
       319.98300        18.062200        7.2251700
       325.15800        18.127500        7.1119900
       330.41800        18.189000        7.0005900
       335.76200        18.246900        6.8909400
       341.19200        18.301600        6.7830000
       346.71100        18.353500        6.6767500
       352.31900        18.402800        6.5721600
       358.01700        18.450200        6.4692200
       363.80800        18.496400        6.3678800
       369.69200        18.545500        6.2681300
       375.67200        18.590900        6.1579200
       381.74800        18.629500        6.0459900
       387.92200        18.660300        5.9360900
       394.19700        18.686100        5.8281900
       400.57300        18.707500        5.7222500
       407.05200        18.725000        5.6182300
       413.63500        18.738900        5.5161100
       420.32600        18.749200        5.4158400
       427.12400        18.756200        5.3174000
       434.03200        18.759900        5.2207400
       441.05200        18.760600        5.1258400
       448.18600        18.758200        5.0326700
       455.43500        18.753000        4.9411900
       462.80200        18.745100        4.8513700
       470.28700        18.734600        4.7631900
       477.89400        18.721900        4.6766100
       485.62300        18.707800        4.5916000
       493.47800        18.694400        4.5081300
       501.45900        18.684100        4.4198400
       509.57000        18.667600        4.3153000
       517.81200        18.634500        4.2132200
       526.18700        18.592300        4.1135600
       534.69800        18.542500        4.0162600
       543.34600        18.485300        3.9212500
       552.13400        18.420700        3.8285000
       561.06500        18.348800        3.7379300
       570.13900        18.269100        3.6495200
       579.36100        18.181200        3.5631900
       588.73200        18.084500        3.4789000
       598.25400        17.977500        3.3966100
       607.93000        17.855800        3.3162600
       617.76300        17.726100        3.2511800
       627.75500        17.590400        3.1909000
       637.90800        17.449600        3.1317400
       648.22600        17.299200        3.0736800
       658.71100        17.137200        3.0166900
       669.36500        16.961800        2.9607600
       680.19100        16.770900        2.9058700
       691.19300        16.562700        2.8519900
       702.37200        16.335400        2.7991100
       713.73300        16.092400        2.7472200
       725.27700        15.826500        2.6672600
       737.00800        15.491600        2.5469900
       748.92800        15.047600        2.4321400
       761.04200        14.554100        2.4033300
       773.35100        13.983300        2.3552000
       785.85900        13.295400        2.3134600
       798.57000        12.440700        2.2769300
       811.48600        11.314600        2.2414900
       824.61100        9.6893300        2.2066100
       837.94900        6.8652100        2.1722900
       851.50200       -4.7785000        2.1385000
       852.60000       -16.584700        2.1358100
       852.80000       -16.569400        17.161200
       865.27400        6.8920800        16.820000
       879.26900        10.697800        16.450800
       893.49100        12.900700        16.089700
       907.94300        14.448200        15.736500
       922.62800        15.620800        15.391100
       937.55100        16.550300        15.068600
       952.71500        17.283700        14.742200
       968.12400        17.775800        14.413900
       983.78300        18.071700        14.273300
       999.69500        18.119800        14.544200
       1015.8600        19.188700        15.283600
       1032.2900        20.414700        14.962200
       1048.9900        21.074800        14.633500
       1065.9600        21.661900        14.306400
       1083.2000        22.177900        13.986400
       1100.7200        22.637800        13.673500
       1118.5200        23.052900        13.367500
       1136.6100        23.430600        13.068400
       1155.0000        23.776400        12.776000
       1173.6800        24.094600        12.490200
       1192.6600        24.388700        12.210800
       1211.9500        24.661700        11.937600
       1231.5500        24.916400        11.670500
       1251.4700        25.154800        11.407300
       1271.7200        25.377100        11.147700
       1292.2900        25.583000        10.891300
       1313.1900        25.773600        10.640800
       1334.4300        25.951100        10.396000
       1356.0100        26.116700        10.156800
       1377.9400        26.271600        9.9231800
       1400.2300        26.416800        9.6948900
       1422.8800        26.553400        9.4718300
       1445.8900        26.682400        9.2539600
       1469.2800        26.806200        9.0397700
       1493.0400        26.923500        8.8285300
       1517.1900        27.033700        8.6141000
       1541.7300        27.132100        8.4038200
       1566.6700        27.221900        8.1987600
       1592.0100        27.304700        7.9986300
       1617.7600        27.380900        7.8033400
       1643.9200        27.451300        7.6127800
       1670.5100        27.516400        7.4269100
       1697.5300        27.576800        7.2456400
       1724.9900        27.634000        7.0688900
       1752.8900        27.687500        6.8931700
       1781.2400        27.735600        6.7207800
       1810.0500        27.778000        6.5519500
       1839.3200        27.816100        6.3873900
       1869.0700        27.850300        6.2269400
       1899.3000        27.880800        6.0704800
       1930.0200        27.908200        5.9180700
       1961.2400        27.932300        5.7694700
       1992.9600        27.953800        5.6244900
       2025.2000        27.973500        5.4852500
       2057.9500        27.991700        5.3461400
       2091.2400        28.007400        5.2102100
       2125.0600        28.019800        5.0774900
       2159.4300        28.030100        4.9480100
       2194.3600        28.038100        4.8213900
       2229.8500        28.044300        4.6981100
       2265.9200        28.048700        4.5775900
       2302.5700        28.051200        4.4599100
       2339.8100        28.052000        4.3452800
       2377.6600        28.051200        4.2333500
       2416.1100        28.049200        4.1243100
       2455.1900        28.045700        4.0177400
       2494.9000        28.040900        3.9138100
       2535.2600        28.035100        3.8126400
       2576.2600        28.028000        3.7137100
       2617.9300        28.019800        3.6173700
       2660.2700        28.010700        3.5233700
       2703.3000        28.000600        3.4317400
       2747.0300        27.989700        3.3423700
       2791.4600        27.978000        3.2552500
       2836.6100        27.965400        3.1702800
       2882.4900        27.952200        3.0874800
       2929.1100        27.938300        3.0067300
       2976.4800        27.923700        2.9280300
       3024.6300        27.908600        2.8513200
       3073.5500        27.892900        2.7765400
       3123.2600        27.876700        2.7036200
       3173.7800        27.860000        2.6325600
       3225.1100        27.842800        2.5632900
       3277.2700        27.825100        2.4958200
       3330.2800        27.807100        2.4300400
       3384.1500        27.788700        2.3659200
       3438.8800        27.769900        2.3034100
       3494.5000        27.750700        2.2425500
       3551.0200        27.731300        2.1831900
       3608.4600        27.711500        2.1253800
       3666.8200        27.691400        2.0690300
       3726.1300        27.671000        2.0141000
       3786.4000        27.650300        1.9606000
       3847.6400        27.629300        1.9084800
       3909.8700        27.608100        1.8576700
       3973.1100        27.586600        1.8081900
       4037.3800        27.564800        1.7599300
       4102.6800        27.542700        1.7129400
       4169.0300        27.520300        1.6671200
       4236.4600        27.497700        1.6225300
       4304.9800        27.474800        1.5790500
       4374.6200        27.451600        1.5366500
       4445.3700        27.428100        1.4954000
       4517.2700        27.404300        1.4551400
       4590.3300        27.380100        1.4159700
       4664.5800        27.355500        1.3777600
       4740.0300        27.330500        1.3405400
       4816.6900        27.305200        1.3042800
       4894.6000        27.279400        1.2689700
       4973.7700        27.253100        1.2345200
       5054.2100        27.226200        1.2009400
       5135.9600        27.198800        1.1682800
       5219.0300        27.170800        1.1364200
       5303.4400        27.142100        1.1053600
       5389.2200        27.112700        1.0751100
       5476.3900        27.082400        1.0456000
       5564.9700        27.051200        1.0169300
       5654.9800        27.019000       0.98887700
       5746.4400        26.985700       0.96161200
       5839.3900        26.951100       0.93504400
       5933.8300        26.915200       0.90913000
       6029.8100        26.877700       0.88384400
       6127.3300        26.838400       0.85925400
       6226.4400        26.797200       0.83524000
       6327.1500        26.753600       0.81185800
       6429.4800        26.707500       0.78906900
       6533.4800        26.658400       0.76684100
       6639.1500        26.605800       0.74518500
       6746.5400        26.549200       0.72407500
       6855.6500        26.487800       0.70349200
       6966.5400        26.420600       0.68343600
       7079.2200        26.346600       0.66387200
       7193.7200        26.263900       0.64480300
       7310.0700        26.170600       0.62620900
       7428.3100        26.063500       0.60809300
       7548.4500        25.938200       0.59041500
       7670.5400        25.787600       0.57318500
       7794.6100        25.600100       0.55638600
       7920.6800        25.354300       0.54000700
       8048.7900        25.003000       0.52402400
       8178.9800        24.409800       0.50844400
       8311.2600        22.385700       0.49328500
       8332.7000        16.702800       0.49089300
       8332.9000        16.703300        3.8390500
       8445.6900        24.252700        3.7642700
       8582.2900        25.154100        3.6769300
       8721.1100        25.667500        3.5908600
       8862.1600        26.030300        3.5061100
       9005.5000        26.311200        3.4227100
       9151.1600        26.539900        3.3406200
       9299.1700        26.732100        3.2597900
       9449.5800        26.897100        3.1803800
       9602.4200        27.041000        3.1024100
       9757.7300        27.167900        3.0257500
       9915.5500        27.280800        2.9506800
       10075.900        27.382000        2.8768600
       10238.900        27.473300        2.8044400
       10404.500        27.555800        2.7334300
       10572.800        27.630700        2.6638200
       10743.800        27.698900        2.5956000
       10917.600        27.761100        2.5287800
       11094.200        27.818000        2.4633400
       11273.600        27.870000        2.3992700
       11455.900        27.917600        2.3365700
       11641.200        27.961300        2.2752100
       11829.500        28.001300        2.2151900
       12020.800        28.038000        2.1565000
       12215.300        28.071600        2.0991200
       12412.800        28.102400        2.0430300
       12613.600        28.130600        1.9882200
       12817.600        28.156400        1.9346700
       13025.000        28.180000        1.8823700
       13235.600        28.201400        1.8312900
       13449.700        28.221000        1.7814100
       13667.200        28.238800        1.7327300
       13888.300        28.254900        1.6852100
       14112.900        28.269400        1.6388400
       14341.200        28.282600        1.5936100
       14573.100        28.294300        1.5494800
       14808.900        28.304800        1.5064400
       15048.400        28.314100        1.4644700
       15291.800        28.322400        1.4235600
       15539.100        28.329600        1.3836700
       15790.400        28.335800        1.3448000
       16045.800        28.341200        1.3069100
       16305.400        28.345700        1.2699900
       16569.100        28.349400        1.2340300
       16837.100        28.352400        1.1989900
       17109.400        28.354700        1.1648700
       17386.100        28.356400        1.1316400
       17667.400        28.357500        1.0992800
       17953.100        28.358100        1.0677700
       18243.500        28.358100        1.0371000
       18538.600        28.357700        1.0072500
       18838.400        28.356800       0.97818800
       19143.100        28.355500       0.94990900
       19452.700        28.353900       0.92239100
       19767.400        28.351800       0.89561600
       20087.100        28.349500       0.86956700
       20412.000        28.346800       0.84422800
       20742.100        28.343900       0.81958000
       21077.600        28.340700       0.79560700
       21418.500        28.337300       0.77229500
       21765.000        28.333600       0.74962400
       22117.000        28.329800       0.72758100
       22474.700        28.325700       0.70615000
       22838.200        28.321600       0.68531500
       23207.600        28.317200       0.66506100
       23583.000        28.312700       0.64537400
       23964.400        28.308100       0.62624100
       24352.000        28.303400       0.60764400
       24745.900        28.298600       0.58957400
       25146.200        28.293700       0.57201300
       25552.900        28.288800       0.55495100
       25966.200        28.283800       0.53837400
       26386.100        28.278700       0.52226900
       26812.900        28.273600       0.50662400
       27246.600        28.268400       0.49142700
       27687.300        28.263200       0.47666500
       28135.100        28.258100       0.46232800
       28590.200        28.252900       0.44840400
       29052.600        28.248000       0.43488200
       29522.500        28.243600       0.42175000
       30000.000        28.233700       0.40899900
       30400.000        28.228400       0.40284000
       30800.000        28.224300       0.39289300
       31200.000        28.220200       0.38331500
       31500.000        28.217200       0.37636300
       31900.000        28.213300       0.36738800
       32300.000        28.209400       0.35873500
       32600.000        28.206500       0.35244700
       33000.000        28.202700       0.34432100
       33400.000        28.199000       0.33641600
       33800.000        28.195400       0.32878500
       34100.000        28.192700       0.32323200
       34500.000        28.189100       0.31604700
       34900.000        28.185600       0.30910200
       35300.000        28.182200       0.30236400
       35700.000        28.178800       0.29583800
       36030.000        28.176000       0.29061400
       36500.000        28.172200       0.28341200
       37000.000        28.168100       0.27604400
       37500.000        28.164300       0.26896200
       38000.000        28.160400       0.26215200
       38500.000        28.156700       0.25555200
       39000.000        28.153000       0.24920000
       39500.000        28.149500       0.24308400
       40000.000        28.146000       0.23719300
       40800.000        28.140600       0.22813200
       41500.000        28.135900       0.22062600
       42300.000        28.130800       0.21249400
       43000.000        28.126400       0.20574500
       43800.000        28.121700       0.19839400
       44500.000        28.117500       0.19228100
       45300.000        28.113100       0.18562300
       46000.000        28.109200       0.18005800
       46500.000        28.106500       0.17623500
       47000.000        28.103900       0.17253300
       47500.000        28.101300       0.16894700
       48000.000        28.098800       0.16547100
       48500.000        28.096400       0.16210200
       49000.000        28.093900       0.15883500
       49500.000        28.091600       0.15566600
       50000.000        28.089300       0.15259200
       50500.000        28.087100       0.14958400
       51000.000        28.084900       0.14666500
       51500.000        28.082700       0.14383100
       52000.000        28.080500       0.14107800
       52500.000        28.078500       0.13840300
       53000.000        28.076400       0.13580300
       53500.000        28.074400       0.13327700
       54000.000        28.072300       0.13081900
       54500.000        28.070500       0.12843000
       55000.000        28.068600       0.12610500
       56000.000        28.064800       0.12161800
       56800.000        28.062000       0.11819800
       57530.000        28.059500       0.11520100
       58000.000        28.057900       0.11333100
       58500.000        28.056200       0.11138400
       59540.000        28.052900       0.10749000
       59800.000        28.052100       0.10654900
       60000.000        28.051500       0.10583300
       60800.000        28.049000       0.10300000
       61500.000        28.046900       0.10061200
       62300.000        28.044600      0.097984200
       63000.000        28.042600      0.095768700
       64000.000        28.039800      0.092730800
       65000.000        28.037100      0.089834200
       65900.000        28.034800      0.087335100
       66830.000        28.032400      0.084859800
       67400.000        28.031000      0.083394000
       68000.000        28.029600      0.081891300
       69000.000        28.027300      0.079474800
       70000.000        28.025000      0.077162900
       71000.000        28.022800      0.074941200
       72000.000        28.020600      0.072813100
       72800.000        28.019000      0.071174700
       73500.000        28.017600      0.069785500
       74200.000        28.016200      0.068436300
       74960.000        28.014700      0.067014900
       75500.000        28.013700      0.066031400
       76000.000        28.012700      0.065139700
       77110.000        28.010700      0.063223100
       77900.000        28.009300      0.061909600
       78600.000        28.008100      0.060779400
       79300.000        28.006900      0.059679500
       80000.000        28.005700      0.058608900
       80800.000        28.004400      0.057416300
       81500.000        28.003300      0.056402000
       82300.000        28.002100      0.055275100
       83000.000        28.001000      0.054316200
       84000.000        27.999500      0.052988600
       85000.000        27.998000      0.051708700
       86500.000        27.996000      0.049873100
       88000.000        27.993900      0.048132500
       89000.000        27.992600      0.047021800
       90000.000        27.991300      0.045948700
       91500.000        27.989500      0.044403100
       93000.000        27.987700      0.042933400
       94000.000        27.986600      0.041993300
       95000.000        27.985500      0.041083400
       96500.000        27.983900      0.039772500
       98000.000        27.982300      0.038522600
       99000.000        27.981300      0.037721500
       99500.000        27.980800      0.037330200
       100000.00        27.980400      0.036944800
