;  Atomic scattering factors for O.
;   
;  Concatenation of data from CXRO <http://www-cxro.lbl.gov>
;  and LLNL <http://www-phys.llnl.gov/V_Div/scattering/asf.html>
;  
;  E (eV) f1 f2
;---------------
       10.000000       -9999.0000       0.70328000
       10.161700       -9999.0000       0.70722600
       10.326100       -9999.0000       0.70737700
       10.493100       -9999.0000       0.70752800
       10.662800       -9999.0000       0.70767800
       10.835300       -9999.0000       0.70783000
       11.010600       -9999.0000       0.70798000
       11.188600       -9999.0000       0.70813100
       11.369600       -9999.0000       0.70828200
       11.553500       -9999.0000       0.70843300
       11.740400       -9999.0000       0.70858400
       11.930300       -9999.0000       0.71016900
       12.123200       -9999.0000       0.71242100
       12.319300       -9999.0000       0.71468000
       12.518600       -9999.0000       0.71694700
       12.721000       -9999.0000       0.71922100
       12.926800       -9999.0000       0.72150200
       13.135900       -9999.0000       0.72379000
       13.348300       -9999.0000       0.72608500
       13.564200       -9999.0000       0.73364000
       13.783600       -9999.0000       0.74606600
       14.006600       -9999.0000       0.75870200
       14.233100       -9999.0000       0.77155300
       14.463300       -9999.0000       0.78462200
       14.697300       -9999.0000       0.80140600
       14.935000       -9999.0000       0.83291500
       15.176500       -9999.0000       0.86566300
       15.422000       -9999.0000       0.89969900
       15.671400       -9999.0000       0.97349600
       15.924900       -9999.0000        1.0769100
       16.182500       -9999.0000        1.1913100
       16.444200       -9999.0000        1.3178700
       16.710200       -9999.0000        1.4578700
       16.980500       -9999.0000        1.6127400
       17.255100       -9999.0000        1.7840700
       17.534200       -9999.0000        1.9735900
       17.817800       -9999.0000        2.1908400
       18.106000       -9999.0000        2.4458900
       18.398900       -9999.0000        2.7306500
       18.696400       -9999.0000        3.0485600
       18.998800       -9999.0000        3.3154100
       19.306100       -9999.0000        3.4795200
       19.618400       -9999.0000        3.6517500
       19.935700       -9999.0000        3.7787900
       20.258200       -9999.0000        3.8365000
       20.585800       -9999.0000        3.8950900
       20.918800       -9999.0000        3.9545700
       21.257100       -9999.0000        4.0149700
       21.600900       -9999.0000        4.0707800
       21.950300       -9999.0000        4.1138600
       22.305300       -9999.0000        4.1573900
       22.666100       -9999.0000        4.2013800
       23.032700       -9999.0000        4.2458500
       23.405300       -9999.0000        4.2907700
       23.783800       -9999.0000        4.3361800
       24.168500       -9999.0000        4.3710800
       24.559400       -9999.0000        4.3919800
       24.956600       -9999.0000        4.4129700
       25.360300       -9999.0000        4.4340700
       25.770500       -9999.0000        4.4552700
       26.187300       -9999.0000        4.4765700
       26.610900       -9999.0000        4.4979700
       27.041300       -9999.0000        4.5194800
       27.478600       -9999.0000        4.5410800
       27.923100       -9999.0000        4.5628000
       28.374700       -9999.0000        4.5846100
       28.833700       -9999.0000        4.6065300
       29.300000        1.2910800        4.6285500
       29.773900        1.3753000        4.6506800
       30.255500        1.4598700        4.6729200
       30.744900        1.5450000        4.6952600
       31.242100        1.6308900        4.7177000
       31.747500        1.7178200        4.7402600
       32.260900        1.8060400        4.7629200
       32.782700        1.8959100        4.7856900
       33.313000        1.9878400        4.8085700
       33.851800        2.0824000        4.8315600
       34.399300        2.1803700        4.8546600
       34.955700        2.2830300        4.8778700
       35.521100        2.3936000        4.9011900
       36.095600        2.5183800        4.9246200
       36.679400        2.6594000        4.9085300
       37.272700        2.7735600        4.8817700
       37.875500        2.8778900        4.8551500
       38.488200        2.9762000        4.8286800
       39.110700        3.0702000        4.8023500
       39.743200        3.1608500        4.7761700
       40.386100        3.2488200        4.7501200
       41.039300        3.3346100        4.7242300
       41.703100        3.4186000        4.6984600
       42.377600        3.5011300        4.6728500
       43.063000        3.5825100        4.6473700
       43.759500        3.6630200        4.6220300
       44.467300        3.7429900        4.5968300
       45.186500        3.8227700        4.5717600
       45.917400        3.9028100        4.5468300
       46.660000        3.9837500        4.5220400
       47.414700        4.0666800        4.4973800
       48.181600        4.1543500        4.4728600
       48.960900        4.2530300        4.4392400
       49.752800        4.3427800        4.3853000
       50.557600        4.4206600        4.3320100
       51.375300        4.4926000        4.2793700
       52.206200        4.5603300        4.2273700
       53.050600        4.6246000        4.1760100
       53.908700        4.6859100        4.1252600
       54.780600        4.7446400        4.0751400
       55.666700        4.8010300        4.0256200
       56.567000        4.8553300        3.9767000
       57.482000        4.9076900        3.9283800
       58.411700        4.9582700        3.8806500
       59.356400        5.0072000        3.8334900
       60.316500        5.0545700        3.7869100
       61.292100        5.1004900        3.7409000
       62.283400        5.1450400        3.6954400
       63.290800        5.1882900        3.6505400
       64.314500        5.2303100        3.6061800
       65.354700        5.2711500        3.5623600
       66.411800        5.3108600        3.5190700
       67.485900        5.3494700        3.4763100
       68.577500        5.3869800        3.4340700
       69.686700        5.4232200        3.3923400
       70.813800        5.4583700        3.3520600
       71.959100        5.4933200        3.3124800
       73.123000        5.5277900        3.2733600
       74.305700        5.5617000        3.2347000
       75.507600        5.5950500        3.1965100
       76.728900        5.6278800        3.1587700
       77.969900        5.6602000        3.1214600
       79.231000        5.6920500        3.0846000
       80.512500        5.7234700        3.0481800
       81.814700        5.7545000        3.0121800
       83.138000        5.7851900        2.9766100
       84.482700        5.8155900        2.9414600
       85.849100        5.8457600        2.9067300
       87.237700        5.8757700        2.8724000
       88.648700        5.9057200        2.8384800
       90.082500        5.9357000        2.8049600
       91.539500        5.9658800        2.7718400
       93.020100        5.9964600        2.7391100
       94.524600        6.0277600        2.7067600
       96.053500        6.0603800        2.6748000
       97.607100        6.0957500        2.6432100
       99.185800        6.1391700        2.6069800
       100.79000        6.1752800        2.5582100
       102.42000        6.2052000        2.5103500
       104.07700        6.2313600        2.4633900
       105.76000        6.2549800        2.4173000
       107.47100        6.2765600        2.3720800
       109.20900        6.2964000        2.3277000
       110.97500        6.3147400        2.2841600
       112.77000        6.3317500        2.2414300
       114.59400        6.3475500        2.1994900
       116.44800        6.3622400        2.1583400
       118.33100        6.3759300        2.1179700
       120.24500        6.3886700        2.0783400
       122.19000        6.4005300        2.0394600
       124.16600        6.4115500        2.0013100
       126.17500        6.4217600        1.9638700
       128.21500        6.4311900        1.9271300
       130.28900        6.4398300        1.8910800
       132.39700        6.4476100        1.8557000
       134.53800        6.4537700        1.8210200
       136.71400        6.4598300        1.7891900
       138.92500        6.4664000        1.7579100
       141.17200        6.4729900        1.7271700
       143.45600        6.4794900        1.6969800
       145.77600        6.4858500        1.6673100
       148.13400        6.4920700        1.6381600
       150.53000        6.4981600        1.6095200
       152.96400        6.5041300        1.5813800
       155.43900        6.5100100        1.5537400
       157.95300        6.5158300        1.5265700
       160.50700        6.5216400        1.4998900
       163.10300        6.5274900        1.4736600
       165.74200        6.5334700        1.4479000
       168.42200        6.5396800        1.4225900
       171.14600        6.5462800        1.3977200
       173.91500        6.5535300        1.3732800
       176.72700        6.5618800        1.3492700
       179.58600        6.5728500        1.3256800
       182.49100        6.5906200        1.2977500
       185.44200        6.6012600        1.2598500
       188.44200        6.6065600        1.2230600
       191.48900        6.6089000        1.1873400
       194.58700        6.6090900        1.1526600
       197.73400        6.6075600        1.1190000
       200.93200        6.6045900        1.0863200
       204.18200        6.6003700        1.0545900
       207.48500        6.5950400        1.0237900
       210.84000        6.5886900       0.99389400
       214.25100        6.5814100       0.96486900
       217.71600        6.5732400       0.93669000
       221.23700        6.5642100       0.90933500
       224.81600        6.5543400       0.88277700
       228.45200        6.5435800       0.85699700
       232.14700        6.5318600       0.83196800
       235.90200        6.5191000       0.80767200
       239.71700        6.5028900       0.78514100
       243.59500        6.4878000       0.76705000
       247.53500        6.4746900       0.74937700
       251.53800        6.4618700       0.73211100
       255.60700        6.4491700       0.71524600
       259.74100        6.4364700       0.69876600
       263.94200        6.4237000       0.68266600
       268.21100        6.4107700       0.66693600
       272.54900        6.3977400       0.65156800
       276.95700        6.3845300       0.63639000
       281.43700        6.3709300       0.62136000
       285.98900        6.3568400       0.60656700
       290.61500        6.3422300       0.59210600
       295.31500        6.3271000       0.57798700
       300.09200        6.3114300       0.56420600
       304.94500        6.2952100       0.55075600
       309.87800        6.2783900       0.53762500
       314.89000        6.2609300       0.52480900
       319.98300        6.2427900       0.51229600
       325.15800        6.2239200       0.50007800
       330.41800        6.2042400       0.48815600
       335.76200        6.1837200       0.47651800
       341.19200        6.1622700       0.46516000
       346.71100        6.1398200       0.45406800
       352.31900        6.1162700       0.44324000
       358.01700        6.0915300       0.43267700
       363.80800        6.0655000       0.42235900
       369.69200        6.0380500       0.41228700
       375.67200        6.0090400       0.40245500
       381.74800        5.9783400       0.39285900
       387.92200        5.9458100       0.38339900
       394.19700        5.9110800       0.37396500
       400.57300        5.8737800       0.36473400
       407.05200        5.8337100       0.35571800
       413.63500        5.7905100       0.34691100
       420.32600        5.7437800       0.33833200
       427.12400        5.6930100       0.32996600
       434.03200        5.6376000       0.32180500
       441.05200        5.5767700       0.31384200
       448.18600        5.5095500       0.30607800
       455.43500        5.4347300       0.29852500
       462.80200        5.3507500       0.29117100
       470.28700        5.2554800       0.28400400
       477.89400        5.1460400       0.27700500
       485.62300        5.0183100       0.27018400
       493.47800        4.8662300       0.26353500
       501.45900        4.6802900       0.25705600
       509.57000        4.4443300       0.25072200
       517.81200        4.1275700       0.24454200
       526.18700        3.6597700       0.23852800
       534.69800        2.8105700       0.23266200
       543.00000       -2.9741700       0.22716500
       543.20000       -2.9682000        4.4101700
       543.34600       -1.7642700        4.4084300
       552.13400        3.1487300        4.3060500
       561.06500        4.1365500        4.2060300
       570.13900        4.7349300        4.1087400
       579.36100        5.1676800        4.0163100
       588.73200        5.5083600        3.9266800
       598.25400        5.7896600        3.8394800
       607.93000        6.0290500        3.7541700
       617.76300        6.2376100        3.6707100
       627.75500        6.4227000        3.5887800
       637.90800        6.5903100        3.5051900
       648.22600        6.7402300        3.4185100
       658.71100        6.8701700        3.3307200
       669.36500        6.9823400        3.2451800
       680.19100        7.0790000        3.1706100
       691.19300        7.1717600        3.1044000
       702.37200        7.2653700        3.0409700
       713.73300        7.3563200        2.9725300
       725.27700        7.4372500        2.9013800
       737.00800        7.5109600        2.8321000
       748.92800        7.5792300        2.7644100
       761.04200        7.6427800        2.6982400
       773.35100        7.7030100        2.6329900
       785.85900        7.7595200        2.5670700
       798.57000        7.8100200        2.5009700
       811.48600        7.8556000        2.4365600
       824.61100        7.8968500        2.3738100
       837.94900        7.9340000        2.3126700
       851.50200        7.9668900        2.2549000
       865.27400        7.9972700        2.2004800
       879.26900        8.0273800        2.1490400
       893.49100        8.0567600        2.0988000
       907.94300        8.0854600        2.0497400
       922.62800        8.1138500        2.0018300
       937.55100        8.1416400        1.9512500
       952.71500        8.1663900        1.9010200
       968.12400        8.1882200        1.8512900
       983.78300        8.2077300        1.8028400
       999.69500        8.2252400        1.7557500
       1015.8600        8.2411000        1.7100100
       1032.2900        8.2559100        1.6662500
       1048.9900        8.2701700        1.6230400
       1065.9600        8.2828600        1.5803500
       1083.2000        8.2942100        1.5387700
       1100.7200        8.3044300        1.4982800
       1118.5200        8.3136300        1.4588500
       1136.6100        8.3219100        1.4204800
       1155.0000        8.3293700        1.3831100
       1173.6800        8.3360600        1.3467100
       1192.6600        8.3420500        1.3112700
       1211.9500        8.3474100        1.2767600
       1231.5500        8.3522600        1.2431600
       1251.4700        8.3567000        1.2102200
       1271.7200        8.3606500        1.1778900
       1292.2900        8.3637700        1.1460900
       1313.1900        8.3662000        1.1151600
       1334.4300        8.3680900        1.0850700
       1356.0100        8.3694900        1.0557900
       1377.9400        8.3704700        1.0273200
       1400.2300        8.3710900       0.99960400
       1422.8800        8.3713600       0.97261100
       1445.8900        8.3713500       0.94638000
       1469.2800        8.3712300       0.92076600
       1493.0400        8.3708800       0.89570100
       1517.1900        8.3702500       0.87080600
       1541.7300        8.3690100       0.84654900
       1566.6700        8.3674200       0.82299700
       1592.0100        8.3655500       0.80006200
       1617.7600        8.3634000       0.77776700
       1643.9200        8.3610400       0.75611100
       1670.5100        8.3585100       0.73503700
       1697.5300        8.3558200       0.71454800
       1724.9900        8.3530500       0.69462700
       1752.8900        8.3502100       0.67503000
       1781.2400        8.3471000       0.65590800
       1810.0500        8.3437800       0.63727000
       1839.3200        8.3402800       0.61915800
       1869.0700        8.3366500       0.60156000
       1899.3000        8.3329100       0.58446200
       1930.0200        8.3290700       0.56784900
       1961.2400        8.3251600       0.55170800
       1992.9600        8.3211600       0.53602700
       2025.2000        8.3171900       0.52098000
       2057.9500        8.3133200       0.50605900
       2091.2400        8.3093100       0.49152400
       2125.0600        8.3052300       0.47738400
       2159.4300        8.3010900       0.46363400
       2194.3600        8.2969200       0.45025100
       2229.8500        8.2927200       0.43723200
       2265.9200        8.2885100       0.42456800
       2302.5700        8.2842700       0.41224500
       2339.8100        8.2800200       0.40026100
       2377.6600        8.2757600       0.38860500
       2416.1100        8.2715100       0.37726900
       2455.1900        8.2672600       0.36623900
       2494.9000        8.2630100       0.35552300
       2535.2600        8.2587800       0.34508500
       2576.2600        8.2545600       0.33494300
       2617.9300        8.2503500       0.32507900
       2660.2700        8.2461700       0.31548900
       2703.3000        8.2420000       0.30615900
       2747.0300        8.2378600       0.29708400
       2791.4600        8.2337500       0.28826600
       2836.6100        8.2296700       0.27969300
       2882.4900        8.2256200       0.27135200
       2929.1100        8.2216100       0.26323800
       2976.4800        8.2176200       0.25534900
       3024.6300        8.2136700       0.24768700
       3073.5500        8.2097600       0.24023200
       3123.2600        8.2058900       0.23298100
       3173.7800        8.2020500       0.22593100
       3225.1100        8.1982600       0.21907700
       3277.2700        8.1945000       0.21241700
       3330.2800        8.1907900       0.20593700
       3384.1500        8.1871100       0.19964400
       3438.8800        8.1834900       0.19352500
       3494.5000        8.1799100       0.18757400
       3551.0200        8.1763600       0.18178700
       3608.4600        8.1728700       0.17616000
       3666.8200        8.1694200       0.17068100
       3726.1300        8.1659900       0.16536300
       3786.4000        8.1626200       0.16019600
       3847.6400        8.1592900       0.15516700
       3909.8700        8.1560100       0.15028200
       3973.1100        8.1527600       0.14553100
       4037.3800        8.1495400       0.14089900
       4102.6800        8.1463500       0.13642100
       4169.0300        8.1432100       0.13207900
       4236.4600        8.1401100       0.12787100
       4304.9800        8.1370500       0.12378900
       4374.6200        8.1340400       0.11983300
       4445.3700        8.1310800       0.11599800
       4517.2700        8.1281600       0.11228000
       4590.3300        8.1252900       0.10867800
       4664.5800        8.1224600       0.10518500
       4740.0300        8.1196900       0.10180000
       4816.6900        8.1169500      0.098519300
       4894.6000        8.1142700      0.095339800
       4973.7700        8.1116300      0.092259200
       5054.2100        8.1090400      0.089273200
       5135.9600        8.1064900      0.086380100
       5219.0300        8.1040000      0.083577900
       5303.4400        8.1015400      0.080862000
       5389.2200        8.0991300      0.078230900
       5476.3900        8.0967700      0.075681300
       5564.9700        8.0944500      0.073211700
       5654.9800        8.0921800      0.070820500
       5746.4400        8.0899500      0.068504000
       5839.3900        8.0877600      0.066259600
       5933.8300        8.0856200      0.064085700
       6029.8100        8.0835100      0.061979200
       6127.3300        8.0814600      0.059941600
       6226.4400        8.0794400      0.057965900
       6327.1500        8.0774600      0.056054500
       6429.4800        8.0755200      0.054203200
       6533.4800        8.0736200      0.052409700
       6639.1500        8.0717600      0.050672500
       6746.5400        8.0699400      0.048991600
       6855.6500        8.0681600      0.047365000
       6966.5400        8.0664200      0.045789400
       7079.2200        8.0647100      0.044264400
       7193.7200        8.0630400      0.042787500
       7310.0700        8.0614000      0.041358200
       7428.3100        8.0598000      0.039975900
       7548.4500        8.0582400      0.038635900
       7670.5400        8.0567000      0.037340200
       7794.6100        8.0552100      0.036085100
       7920.6800        8.0537400      0.034871000
       8048.7900        8.0523100      0.033698000
       8178.9800        8.0509100      0.032561200
       8311.2600        8.0495400      0.031461200
       8445.6900        8.0482000      0.030396700
       8582.2900        8.0468900      0.029367000
       8721.1100        8.0456100      0.028370700
       8862.1600        8.0443600      0.027407000
       9005.5000        8.0431300      0.026474600
       9151.1600        8.0419400      0.025572800
       9299.1700        8.0407700      0.024700500
       9449.5800        8.0396300      0.023856600
       9602.4200        8.0385200      0.023040600
       9757.7300        8.0374300      0.022251300
       9915.5500        8.0363700      0.021488300
       10075.900        8.0353300      0.020750100
       10238.900        8.0343200      0.020036300
       10404.500        8.0333300      0.019346100
       10572.800        8.0323600      0.018678800
       10743.800        8.0314200      0.018033600
       10917.600        8.0304900      0.017409900
       11094.200        8.0296000      0.016806900
       11273.600        8.0287200      0.016224000
       11455.900        8.0278600      0.015660700
       11641.200        8.0270300      0.015116100
       11829.500        8.0262100      0.014589800
       12020.800        8.0254100      0.014081200
       12215.300        8.0246400      0.013589700
       12412.800        8.0238800      0.013114700
       12613.600        8.0231400      0.012655800
       12817.600        8.0224200      0.012212400
       13025.000        8.0217200      0.011784100
       13235.600        8.0210300      0.011370200
       13449.700        8.0203600      0.010970500
       13667.200        8.0197100      0.010584400
       13888.300        8.0190700      0.010211500
       14112.900        8.0184500     0.0098513200
       14341.200        8.0178500     0.0095035200
       14573.100        8.0172600     0.0091676600
       14808.900        8.0166800     0.0088433900
       15048.400        8.0161200     0.0085303000
       15291.800        8.0155700     0.0082280500
       15539.100        8.0150400     0.0079362800
       15790.400        8.0145200     0.0076546500
       16045.800        8.0140200     0.0073828300
       16305.400        8.0135200     0.0071204900
       16569.100        8.0130400     0.0068673500
       16837.100        8.0125700     0.0066230800
       17109.400        8.0121200     0.0063874200
       17386.100        8.0116700     0.0061600600
       17667.400        8.0112400     0.0059407300
       17953.100        8.0108200     0.0057291900
       18243.500        8.0104100     0.0055251600
       18538.600        8.0100100     0.0053284100
       18838.400        8.0096200     0.0051386900
       19143.100        8.0092400     0.0049557700
       19452.700        8.0088700     0.0047794300
       19767.400        8.0085100     0.0046094500
       20087.100        8.0081600     0.0044465200
       20412.000        8.0078200     0.0042885800
       20742.100        8.0074900     0.0041363200
       21077.600        8.0071700     0.0039895400
       21418.500        8.0068600     0.0038480400
       21765.000        8.0065500     0.0037116200
       22117.000        8.0062600     0.0035800900
       22474.700        8.0059700     0.0034532800
       22838.200        8.0056900     0.0033310000
       23207.600        8.0054100     0.0032131000
       23583.000        8.0051500     0.0030994100
       23964.400        8.0048900     0.0029897800
       24352.000        8.0046400     0.0028840700
       24745.900        8.0043900     0.0027821200
       25146.200        8.0041600     0.0026838000
       25552.900        8.0039300     0.0025889900
       25966.200        8.0037000     0.0024975500
       26386.100        8.0034800     0.0024093500
       26812.900        8.0032700     0.0023242900
       27246.600        8.0030700     0.0022422500
       27687.300        8.0028600     0.0021631100
       28135.100        8.0026700     0.0020867800
       28590.200        8.0024800     0.0020131600
       29052.600        8.0023000     0.0019421400
       29522.500        8.0021200     0.0018736300
       30000.000        8.0019400     0.0018075400
       30400.000        8.0017300     0.0017934400
       30800.000        8.0016100     0.0017410300
       31200.000        8.0015000     0.0016908000
       31500.000        8.0014200     0.0016544900
       31900.000        8.0013100     0.0016078000
       32300.000        8.0012000     0.0015629800
       32600.000        8.0011100     0.0015305400
       33000.000        8.0010000     0.0014887700
       33400.000        8.0008900     0.0014485100
       33800.000        8.0007800     0.0014097900
       34100.000        8.0007000     0.0013817200
       34500.000        8.0005900     0.0013455300
       35300.000        8.0003600     0.0012770700
       36030.000        8.0001600     0.0012188000
       36500.000        8.0000700     0.0011832900
       37000.000        7.9999800     0.0011471200
       37500.000        7.9998900     0.0011125200
       38000.000        7.9997900     0.0010794000
       38500.000        7.9997000     0.0010476800
       39000.000        7.9996100     0.0010172900
       39500.000        7.9995100    0.00098814300
       40000.000        7.9994200    0.00096018600
       40800.000        7.9993100    0.00091763300
       41500.000        7.9992200    0.00088258600
       42300.000        7.9991200    0.00084484200
       43000.000        7.9990200    0.00081369000
       43800.000        7.9989200    0.00078006900
       44500.000        7.9988200    0.00075226500
       45300.000        7.9987200    0.00072217600
       46000.000        7.9986200    0.00069721400
       46500.000        7.9985800    0.00068013600
       47000.000        7.9985300    0.00066365300
       48000.000        7.9984300    0.00063236300
       49000.000        7.9983300    0.00060314800
       49500.000        7.9982800    0.00058926400
       50000.000        7.9982400    0.00057583400
       51000.000        7.9981600    0.00055019600
       52000.000        7.9980900    0.00052616500
       53000.000        7.9980200    0.00050361100
       54000.000        7.9979500    0.00048241900
       55000.000        7.9978800    0.00046248400
       56000.000        7.9978100    0.00044371000
       56800.000        7.9977500    0.00042946800
       57530.000        7.9977000    0.00041703800
       58000.000        7.9976700    0.00040930600
       58500.000        7.9976500    0.00040130500
       59540.000        7.9975900    0.00038536600
       60000.000        7.9975600    0.00037860400
       61500.000        7.9975000    0.00035766700
       63000.000        7.9974300    0.00033835200
       65000.000        7.9973400    0.00031484600
       66830.000        7.9972600    0.00029533800
       68000.000        7.9972200    0.00028376200
       70000.000        7.9971500    0.00026543000
       72000.000        7.9970900    0.00024874900
       74960.000        7.9970000    0.00022669800
       76000.000        7.9969700    0.00021961400
       77110.000        7.9969400    0.00021239900
       78600.000        7.9969000    0.00020323600
       80000.000        7.9968700    0.00019513500
       83000.000        7.9968100    0.00017964000
       85000.000        7.9967700    0.00017028000
       88000.000        7.9967100    0.00015751000
       90000.000        7.9966800    0.00014975300
       93000.000        7.9966300    0.00013914300
       95000.000        7.9966100    0.00013266500
       98000.000        7.9965600    0.00012373600
       100000.00        7.9965400    0.00011825900
