;  Atomic scattering factors for P.
;   
;  Concatenation of data from CXRO <http://www-cxro.lbl.gov>
;  and LLNL <http://www-phys.llnl.gov/V_Div/scattering/asf.html>
;  
;  E (eV) f1 f2
;---------------
       10.000000       -9999.0000        8.4773800
       10.161700       -9999.0000        8.2709200
       10.326100       -9999.0000        8.0694900
       10.493100       -9999.0000        7.8729700
       10.662800       -9999.0000        7.6812300
       10.835300       -9999.0000        7.4941600
       11.010600       -9999.0000        7.3116500
       11.188600       -9999.0000        7.1335900
       11.369600       -9999.0000        6.9598500
       11.553500       -9999.0000        6.7903500
       11.740400       -9999.0000        6.6249800
       11.930300       -9999.0000        6.4636400
       12.123200       -9999.0000        6.3062300
       12.319300       -9999.0000        6.1427900
       12.518600       -9999.0000        5.9693800
       12.721000       -9999.0000        5.8008700
       12.926800       -9999.0000        5.6371100
       13.135900       -9999.0000        5.4779700
       13.348300       -9999.0000        5.3205900
       13.564200       -9999.0000        5.1023200
       13.783600       -9999.0000        4.8930000
       14.006600       -9999.0000        4.6922700
       14.233100       -9999.0000        4.4997700
       14.463300       -9999.0000        4.3151700
       14.697300       -9999.0000        4.1381500
       14.935000       -9999.0000        3.9683800
       15.176500       -9999.0000        3.8055800
       15.422000       -9999.0000        3.6494600
       15.671400       -9999.0000        3.4949800
       15.924900       -9999.0000        3.3355900
       16.182500       -9999.0000        3.1834700
       16.444200       -9999.0000        3.0382800
       16.710200       -9999.0000        2.8941900
       16.980500       -9999.0000        2.6931800
       17.255100       -9999.0000        2.5061400
       17.534200       -9999.0000        2.3198600
       17.817800       -9999.0000        2.1007600
       18.106000       -9999.0000        1.9023700
       18.398900       -9999.0000        1.7000800
       18.696400       -9999.0000        1.5157200
       18.998800       -9999.0000        1.3718400
       19.306100       -9999.0000        1.2432000
       19.618400       -9999.0000        1.1249400
       19.935700       -9999.0000        1.0157400
       20.258200       -9999.0000       0.91428800
       20.585800       -9999.0000       0.81611900
       20.918800       -9999.0000       0.73159000
       21.257100       -9999.0000       0.66162900
       21.600900       -9999.0000       0.59717900
       21.950300       -9999.0000       0.53726600
       22.305300       -9999.0000       0.48336500
       22.666100       -9999.0000       0.43811600
       23.032700       -9999.0000       0.39752400
       23.405300       -9999.0000       0.36265600
       23.783800       -9999.0000       0.33444100
       24.168500       -9999.0000       0.30842100
       24.559400       -9999.0000       0.28218200
       24.956600       -9999.0000       0.25700900
       25.360300       -9999.0000       0.23659400
       25.770500       -9999.0000       0.22277200
       26.187300       -9999.0000       0.20991700
       26.610900       -9999.0000       0.20646000
       27.041300       -9999.0000       0.20305900
       27.478600       -9999.0000       0.20425500
       27.923100       -9999.0000       0.20975300
       28.374700       -9999.0000       0.21539900
       28.833700       -9999.0000       0.22119600
       29.300000        4.9780500       0.22970800
       29.773900        4.9424500       0.23870800
       30.255500        4.9091500       0.24806100
       30.744900        4.8775300       0.25807300
       31.242100        4.8480900       0.26899500
       31.747500        4.8207100       0.28038000
       32.260900        4.7953100       0.29224700
       32.782700        4.7723300       0.30461500
       33.313000        4.7528500       0.31630700
       33.851800        4.7334500       0.32536800
       34.399300        4.7141600       0.33468800
       34.955700        4.6957500       0.34373800
       35.521100        4.6774600       0.35263900
       36.095600        4.6595800       0.36176900
       36.679400        4.6421800       0.37113600
       37.272700        4.6252800       0.38074600
       37.875500        4.6088900       0.39060500
       38.488200        4.5930100       0.40071800
       39.110700        4.5776300       0.41109400
       39.743200        4.5627600       0.42173900
       40.386100        4.5484100       0.43265800
       41.039300        4.5345900       0.44386100
       41.703100        4.5213300       0.45535400
       42.377600        4.5087200       0.46714500
       43.063000        4.4969600       0.47924000
       43.759500        4.4861800       0.49069000
       44.467300        4.4751700       0.50187200
       45.186500        4.4643100       0.51330800
       45.917400        4.4537200       0.52500500
       46.660000        4.4434800       0.53696800
       47.414700        4.4336600       0.54920400
       48.181600        4.4243300       0.56171900
       48.960900        4.4155700       0.57451900
       49.752800        4.4075100       0.58761000
       50.557600        4.4003500       0.60100000
       51.375300        4.3944700       0.61469500
       52.206200        4.3907600       0.62870300
       53.050600        4.3922300       0.63928800
       53.908700        4.3897700       0.64413800
       54.780600        4.3849400       0.64902600
       55.666700        4.3788100       0.65395000
       56.567000        4.3718000       0.65891100
       57.482000        4.3641100       0.66391100
       58.411700        4.3558800       0.66894800
       59.356400        4.3472600       0.67402300
       60.316500        4.3384200       0.67913700
       61.292100        4.3297900       0.68429000
       62.283400        4.3227500       0.68800500
       63.290800        4.3132200       0.68851500
       64.314500        4.3015600       0.68902400
       65.354700        4.2883200       0.68953500
       66.411800        4.2737300       0.69004500
       67.485900        4.2578600       0.69055600
       68.577500        4.2407200       0.69106700
       69.686700        4.2223100       0.69157900
       70.813800        4.2026300       0.69209100
       71.959100        4.1816400       0.69260300
       73.123000        4.1593300       0.69311600
       74.305700        4.1356800       0.69362900
       75.507600        4.1107300       0.69414300
       76.728900        4.0847200       0.69465700
       77.969900        4.0577200       0.69381800
       79.231000        4.0277600       0.69206000
       80.512500        3.9952700       0.69030600
       81.814700        3.9603400       0.68855800
       83.138000        3.9229300       0.68681300
       84.482700        3.8829200       0.68507300
       85.849100        3.8401800       0.68333700
       87.237700        3.7945700       0.68160500
       88.648700        3.7459000       0.67987900
       90.082500        3.6939900       0.67815600
       91.539500        3.6386700       0.67643800
       93.020100        3.5797600       0.67472300
       94.524600        3.5174500       0.67301400
       96.053500        3.4533800       0.66902300
       97.607100        3.3811600       0.66191800
       99.185800        3.3011700       0.65488800
       100.79000        3.2138700       0.64793200
       102.42000        3.1187000       0.64105100
       104.07700        3.0149200       0.63424300
       105.76000        2.9015900       0.62750700
       107.47100        2.7776000       0.62084200
       109.20900        2.6416200       0.61424800
       110.97500        2.4924900       0.60772500
       112.77000        2.3270800       0.59833000
       114.59400        2.1404900       0.58843900
       116.44800        1.9293200       0.57871200
       118.33100        1.6888400       0.56914500
       120.24500        1.4118900       0.55973600
       122.19000        1.0881400       0.55048300
       124.16600       0.70179100       0.54138300
       126.17500       0.22710400       0.53243300
       128.21500      -0.38239600       0.52363100
       130.28900       -1.2251200       0.51497500
       132.39700       -2.5809900       0.50646200
       134.53800       -6.4299100       0.49808900
       134.90000       -9.7503600       0.49670100
       135.10000       -9.7804000        7.2482100
       136.71400       -3.8068800        7.3762400
       138.92500       -2.1187100        7.5528100
       141.17200       -1.1970000        7.7336000
       143.45600      -0.54138200        7.9187200
       145.77600     -0.014160200        8.1082800
       148.13400       0.44498500        8.3023600
       150.53000       0.87247000        8.5011000
       152.96400        1.3132600        8.7046000
       155.43900        1.7301300        8.8079700
       157.95300        2.1010600        8.9110100
       160.50700        2.4441400        9.0152600
       163.10300        2.7774600        9.1207300
       165.74200        3.1131300        9.2274400
       168.42200        3.4813500        9.3353900
       171.14600        3.9096200        9.3240400
       173.91500        4.2245500        9.2212800
       176.72700        4.4379800        9.1196600
       179.58600        4.5708400        9.0191500
       182.49100        4.4883500        8.9197700
       185.44200        4.4382700        9.2323400
       188.44200        4.5681300        9.5727800
       191.48900        4.8107900        9.9257700
       194.58700        5.1751400        10.291800
       197.73400        5.7909300        10.636500
       200.93200        6.3613200        10.551300
       204.18200        6.8105800        10.466800
       207.48500        7.1883800        10.383000
       210.84000        7.5386000        10.299900
       214.25100        7.8991800        10.201000
       217.71600        8.2143000        10.061000
       221.23700        8.4886400        9.9228100
       224.81600        8.7392300        9.7865500
       228.45200        8.9691300        9.6521800
       232.14700        9.1770200        9.5196400
       235.90200        9.3681400        9.4059400
       239.71700        9.5575000        9.3002200
       243.59500        9.7445500        9.1956800
       247.53500        9.9263600        9.0923300
       251.53800        10.103200        8.9901200
       255.60700        10.275600        8.8890700
       259.74100        10.444000        8.7891600
       263.94200        10.609200        8.6903700
       268.21100        10.772300        8.5927000
       272.54900        10.934600        8.4961100
       276.95700        11.099200        8.4006200
       281.43700        11.279900        8.2978400
       285.98900        11.442000        8.1649400
       290.61500        11.587600        8.0341700
       295.31500        11.722500        7.9055000
       300.09200        11.849400        7.7788800
       304.94500        11.969600        7.6542900
       309.87800        12.084000        7.5317100
       314.89000        12.193200        7.4110800
       319.98300        12.297800        7.2923800
       325.15800        12.398000        7.1755900
       330.41800        12.494400        7.0606700
       335.76200        12.587300        6.9475800
       341.19200        12.676900        6.8363100
       346.71100        12.763600        6.7268200
       352.31900        12.847700        6.6190900
       358.01700        12.929500        6.5130800
       363.80800        13.009200        6.4087600
       369.69200        13.087400        6.3061200
       375.67200        13.164500        6.2051200
       381.74800        13.241500        6.1057500
       387.92200        13.321200        6.0063500
       394.19700        13.402500        5.9039100
       400.57300        13.481100        5.7917800
       407.05200        13.549700        5.6773500
       413.63500        13.612000        5.5653600
       420.32600        13.670100        5.4555000
       427.12400        13.724800        5.3477700
       434.03200        13.776600        5.2421000
       441.05200        13.826300        5.1385500
       448.18600        13.876500        5.0363000
       455.43500        13.924000        4.9323900
       462.80200        13.968100        4.8279000
       470.28700        14.008000        4.7241600
       477.89400        14.043900        4.6225100
       485.62300        14.077200        4.5232000
       493.47800        14.108200        4.4261000
       501.45900        14.137600        4.3311600
       509.57000        14.165600        4.2380900
       517.81200        14.192900        4.1466400
       526.18700        14.219500        4.0560300
       534.69800        14.244800        3.9651100
       543.34600        14.267600        3.8751100
       552.13400        14.290900        3.7872000
       561.06500        14.312700        3.6930000
       570.13900        14.324500        3.5983200
       579.36100        14.332200        3.5128900
       588.73200        14.339400        3.4315600
       598.25400        14.347600        3.3533900
       607.93000        14.356100        3.2770100
       617.76300        14.365200        3.2023500
       627.75500        14.376400        3.1289900
       637.90800        14.388900        3.0526400
       648.22600        14.399700        2.9713800
       658.71100        14.402600        2.8879400
       669.36500        14.397800        2.8068100
       680.19100        14.387200        2.7353800
       691.19300        14.378700        2.6714100
       702.37200        14.376000        2.6105400
       713.73300        14.375200        2.5473000
       725.27700        14.372100        2.4830600
       737.00800        14.367600        2.4204500
       748.92800        14.362200        2.3594200
       761.04200        14.356400        2.2998700
       773.35100        14.350800        2.2413500
       785.85900        14.344800        2.1826700
       798.57000        14.336700        2.1242000
       811.48600        14.327100        2.0673100
       824.61100        14.316400        2.0119300
       837.94900        14.304800        1.9580300
       851.50200        14.292200        1.9057900
       865.27400        14.279000        1.8551700
       879.26900        14.265400        1.8061000
       893.49100        14.251400        1.7583500
       907.94300        14.237000        1.7118500
       922.62800        14.222400        1.6665800
       937.55100        14.207300        1.6222500
       952.71500        14.191700        1.5790600
       968.12400        14.175600        1.5369800
       983.78300        14.159200        1.4960400
       999.69500        14.142300        1.4562100
       1015.8600        14.125100        1.4174700
       1032.2900        14.107900        1.3798300
       1048.9900        14.090500        1.3427300
       1065.9600        14.072400        1.3061500
       1083.2000        14.053500        1.2705600
       1100.7200        14.034100        1.2359600
       1118.5200        14.014200        1.2023200
       1136.6100        13.993900        1.1695600
       1155.0000        13.973000        1.1377000
       1173.6800        13.951600        1.1067300
       1192.6600        13.929700        1.0765700
       1211.9500        13.907200        1.0472300
       1231.5500        13.884100        1.0186700
       1251.4700        13.860400       0.99099600
       1271.7200        13.836000       0.96414600
       1292.2900        13.811000       0.93810700
       1313.1900        13.785400       0.91277500
       1334.4300        13.759100       0.88812800
       1356.0100        13.731900       0.86414500
       1377.9400        13.703900       0.84081400
       1400.2300        13.674800       0.81811200
       1422.8800        13.644700       0.79602400
       1445.8900        13.613400       0.77453000
       1469.2800        13.580700       0.75367300
       1493.0400        13.546500       0.73345800
       1517.1900        13.510800       0.71414400
       1541.7300        13.473600       0.69538600
       1566.6700        13.434500       0.67711400
       1592.0100        13.393300       0.65933200
       1617.7600        13.349700       0.64201500
       1643.9200        13.303200       0.62514800
       1670.5100        13.253600       0.60872300
       1697.5300        13.200400       0.59273200
       1724.9900        13.143000       0.57716400
       1752.8900        13.080600       0.56147900
       1781.2400        13.011800       0.54604800
       1810.0500        12.935500       0.53091700
       1839.3200        12.850100       0.51620000
       1869.0700        12.753500       0.50188900
       1899.3000        12.642600       0.48797700
       1930.0200        12.513200       0.47444800
       1961.2400        12.358800       0.46129600
       1992.9600        12.168700       0.44851300
       2025.2000        11.924900       0.43636100
       2057.9500        11.589500       0.42389500
       2091.2400        11.067600       0.41166500
       2125.0600        9.9541500       0.39970000
       2145.4000        3.5459500       0.39276200
       2145.6000        3.5476500        4.2228400
       2159.4300        9.6095900        4.1850900
       2194.3600        11.218700        4.0923300
       2229.8500        11.942300        4.0006700
       2265.9200        12.421900        3.9102100
       2302.5700        12.782600        3.8210000
       2339.8100        13.071900        3.7329300
       2377.6600        13.312700        3.6460500
       2416.1100        13.518600        3.5605500
       2455.1900        13.697600        3.4763000
       2494.9000        13.855300        3.3933900
       2535.2600        13.995700        3.3118500
       2576.2600        14.121600        3.2317500
       2617.9300        14.235200        3.1529600
       2660.2700        14.338300        3.0757600
       2703.3000        14.432100        2.9996800
       2747.0300        14.517700        2.9251200
       2791.4600        14.596100        2.8519500
       2836.6100        14.667900        2.7802200
       2882.4900        14.734000        2.7099200
       2929.1100        14.794700        2.6409100
       2976.4800        14.850600        2.5734100
       3024.6300        14.902000        2.5073100
       3073.5500        14.949600        2.4427000
       3123.2600        14.993500        2.3792400
       3173.7800        15.033900        2.3171500
       3225.1100        15.071000        2.2564900
       3277.2700        15.105300        2.1971500
       3330.2800        15.136900        2.1391000
       3384.1500        15.166000        2.0823700
       3438.8800        15.192700        2.0269100
       3494.5000        15.217200        1.9727300
       3551.0200        15.239700        1.9198100
       3608.4600        15.260300        1.8681100
       3666.8200        15.279100        1.8176200
       3726.1300        15.296200        1.7683300
       3786.4000        15.311800        1.7202100
       3847.6400        15.325900        1.6732500
       3909.8700        15.338700        1.6274300
       3973.1100        15.350200        1.5827400
       4037.3800        15.360500        1.5391400
       4102.6800        15.369700        1.4966100
       4169.0300        15.377800        1.4551500
       4236.4600        15.385000        1.4147200
       4304.9800        15.391200        1.3752900
       4374.6200        15.396600        1.3368700
       4445.3700        15.401100        1.2994300
       4517.2700        15.404900        1.2629500
       4590.3300        15.408000        1.2274200
       4664.5800        15.410500        1.1927800
       4740.0300        15.412300        1.1590600
       4816.6900        15.413500        1.1262100
       4894.6000        15.414200        1.0942300
       4973.7700        15.414400        1.0630600
       5054.2100        15.414100        1.0327400
       5135.9600        15.413400        1.0032300
       5219.0300        15.412300       0.97450500
       5303.4400        15.410800       0.94652800
       5389.2200        15.409000       0.91931000
       5476.3900        15.406800       0.89282800
       5564.9700        15.404300       0.86704700
       5654.9800        15.401600       0.84198600
       5746.4400        15.398500       0.81758300
       5839.3900        15.395300       0.79388100
       5933.8300        15.391800       0.77079500
       6029.8100        15.388200       0.74832300
       6127.3300        15.384300       0.72653200
       6226.4400        15.380300       0.70529200
       6327.1500        15.376100       0.68467000
       6429.4800        15.371800       0.66460500
       6533.4800        15.367400       0.64507100
       6639.1500        15.362800       0.62612200
       6746.5400        15.358200       0.60768000
       6855.6500        15.353400       0.58976800
       6966.5400        15.348600       0.57238400
       7079.2200        15.343700       0.55542700
       7193.7200        15.338800       0.53900000
       7310.0700        15.333800       0.52302200
       7428.3100        15.328800       0.50749400
       7548.4500        15.323700       0.49240600
       7670.5400        15.318600       0.47775000
       7794.6100        15.313500       0.46351500
       7920.6800        15.308400       0.44968400
       8048.7900        15.303300       0.43624400
       8178.9800        15.298100       0.42319400
       8311.2600        15.293000       0.41051500
       8445.6900        15.287900       0.39820800
       8582.2900        15.282800       0.38624800
       8721.1100        15.277700       0.37463800
       8862.1600        15.272700       0.36335900
       9005.5000        15.267600       0.35241100
       9151.1600        15.262600       0.34178000
       9299.1700        15.257700       0.33145700
       9449.5800        15.252700       0.32143100
       9602.4200        15.247800       0.31170000
       9757.7300        15.243000       0.30225400
       9915.5500        15.238200       0.29308900
       10075.900        15.233400       0.28418500
       10238.900        15.228700       0.27554300
       10404.500        15.224000       0.26715300
       10572.800        15.219400       0.25901000
       10743.800        15.214800       0.25110600
       10917.600        15.210300       0.24343500
       11094.200        15.205900       0.23598900
       11273.600        15.201500       0.22876400
       11455.900        15.197100       0.22175100
       11641.200        15.192800       0.21494600
       11829.500        15.188600       0.20834200
       12020.800        15.184400       0.20193400
       12215.300        15.180300       0.19571500
       12412.800        15.176300       0.18968100
       12613.600        15.172300       0.18382700
       12817.600        15.168400       0.17814600
       13025.000        15.164500       0.17263400
       13235.600        15.160700       0.16728700
       13449.700        15.156900       0.16209900
       13667.200        15.153200       0.15706500
       13888.300        15.149600       0.15218200
       14112.900        15.146000       0.14744500
       14341.200        15.142500       0.14284900
       14573.100        15.139100       0.13839100
       14808.900        15.135700       0.13406700
       15048.400        15.132400       0.12987100
       15291.800        15.129100       0.12580200
       15539.100        15.125900       0.12185500
       15790.400        15.122700       0.11802700
       16045.800        15.119600       0.11431300
       16305.400        15.116600       0.11071100
       16569.100        15.113600       0.10721800
       16837.100        15.110600       0.10382900
       17109.400        15.107800       0.10054300
       17386.100        15.104900      0.097355900
       17667.400        15.102200      0.094264700
       17953.100        15.099400      0.091266800
       18243.500        15.096800      0.088359400
       18538.600        15.094200      0.085539900
       18838.400        15.091600      0.082805500
       19143.100        15.089100      0.080153800
       19452.700        15.086600      0.077582400
       19767.400        15.084200      0.075088600
       20087.100        15.081800      0.072680200
       20412.000        15.079500      0.070336600
       20742.100        15.077200      0.068066500
       21077.600        15.075000      0.065867300
       21418.500        15.072800      0.063737100
       21765.000        15.070600      0.061673600
       22117.000        15.068500      0.059675000
       22474.700        15.066500      0.057739200
       22838.200        15.064500      0.055864300
       23207.600        15.062500      0.054048400
       23583.000        15.060600      0.052289700
       23964.400        15.058700      0.050586500
       24352.000        15.056800      0.048937100
       24745.900        15.055000      0.047339800
       25146.200        15.053200      0.045793000
       25552.900        15.051500      0.044295300
       25966.200        15.049800      0.042845000
       26386.100        15.048200      0.041440700
       26812.900        15.046500      0.040081000
       27246.600        15.045000      0.038764500
       27687.300        15.043400      0.037489900
       28135.100        15.041900      0.036255800
       28590.200        15.040400      0.035061200
       29052.600        15.039000      0.033904600
       29522.500        15.037700      0.032784900
       30000.000        15.035900      0.031701100
       30400.000        15.034200      0.030300800
       30800.000        15.033100      0.029471900
       31200.000        15.032000      0.028676000
       31500.000        15.031200      0.028099600
       31900.000        15.030300      0.027357200
       32300.000        15.029300      0.026643400
       32600.000        15.028600      0.026125800
       33000.000        15.027700      0.025458500
       33400.000        15.026800      0.024812800
       33800.000        15.025900      0.024190900
       34100.000        15.025300      0.023739400
       34500.000        15.024400      0.023156400
       34900.000        15.023700      0.022594200
       35300.000        15.022900      0.022050700
       35700.000        15.022100      0.021525700
       36030.000        15.021500      0.021106300
       36500.000        15.020700      0.020529400
       37000.000        15.019800      0.019940700
       37500.000        15.019000      0.019376500
       38000.000        15.018200      0.018835400
       38500.000        15.017400      0.018314500
       39000.000        15.016700      0.017814500
       39500.000        15.015900      0.017334300
       40000.000        15.015200      0.016872800
       40400.000        15.014700      0.016514700
       40800.000        15.014200      0.016167500
       41100.000        15.013800      0.015914200
       41500.000        15.013300      0.015585300
       41900.000        15.012800      0.015266300
       42300.000        15.012300      0.014956700
       42600.000        15.011900      0.014730500
       43000.000        15.011400      0.014436700
       43800.000        15.010500      0.013874200
       44500.000        15.009800      0.013407900
       45300.000        15.008900      0.012901700
       46000.000        15.008200      0.012480100
       46500.000        15.007700      0.012191200
       47000.000        15.007300      0.011912000
       47500.000        15.006800      0.011642000
       48000.000        15.006400      0.011380900
       48500.000        15.005900      0.011128200
       49000.000        15.005500      0.010883700
       49500.000        15.005100      0.010646900
       50000.000        15.004700      0.010417600
       50500.000        15.004300      0.010194400
       51000.000        15.004000     0.0099781700
       51500.000        15.003600     0.0097685400
       52000.000        15.003300     0.0095652800
       52500.000        15.002900     0.0093681400
       53000.000        15.002600     0.0091768700
       53500.000        15.002200     0.0089912500
       54000.000        15.001900     0.0088110500
       54500.000        15.001600     0.0086360800
       55000.000        15.001300     0.0084661300
       56000.000        15.000700     0.0081395600
       56800.000        15.000200     0.0078913600
       57530.000        14.999800     0.0076743800
       58000.000        14.999500     0.0075392600
       58500.000        14.999300     0.0073993000
       59540.000        14.998700     0.0071200600
       59800.000        14.998600     0.0070526600
       60000.000        14.998500     0.0070014400
       60800.000        14.998200     0.0068013100
       61500.000        14.997900     0.0066329700
       62300.000        14.997500     0.0064479000
       63000.000        14.997200     0.0062920800
       63500.000        14.997000     0.0061841200
       63650.000        14.997000     0.0061522600
       63800.000        14.996900     0.0061206400
       63850.000        14.996900     0.0061101500
       63870.000        14.996900     0.0061059600
       63900.000        14.996900     0.0060996800
       63905.000        14.996900     0.0060986300
       63910.000        14.996900     0.0060975900
       63913.000        14.996800     0.0060926900
       63915.000        14.996800     0.0060837600
       63920.000        14.996800     0.0060827100
       63927.000        14.996800     0.0060812600
       63935.000        14.996800     0.0060796000
       63950.000        14.996800     0.0060764700
       64000.000        14.996800     0.0060660800
       64080.000        14.996800     0.0060495100
       64150.000        14.996700     0.0060350600
       64300.000        14.996700     0.0060042700
       64500.000        14.996600     0.0059635700
       65000.000        14.996400     0.0058635900
       65900.000        14.996000     0.0056895500
       66830.000        14.995600     0.0055173900
       67400.000        14.995400     0.0054154800
       68000.000        14.995200     0.0053111300
       69000.000        14.994900     0.0051435500
       70000.000        14.994500     0.0049835600
       71000.000        14.994200     0.0048305300
       72000.000        14.993900     0.0046842500
       72800.000        14.993700     0.0045718100
       73500.000        14.993500     0.0044766200
       74200.000        14.993300     0.0043842900
       74960.000        14.993100     0.0042871500
       75500.000        14.992900     0.0042200200
       76000.000        14.992800     0.0041592100
       77110.000        14.992500     0.0040287000
       78600.000        14.992100     0.0038626900
       79300.000        14.992000     0.0037881200
       80000.000        14.991800     0.0037156200
       81500.000        14.991500     0.0035666300
       83000.000        14.991200     0.0034261700
       84000.000        14.991000     0.0033369500
       85000.000        14.990800     0.0032510800
       86500.000        14.990600     0.0031281700
       88000.000        14.990300     0.0030119000
       89000.000        14.990100     0.0029378500
       90000.000        14.989900     0.0028664200
       91500.000        14.989700     0.0027638800
       93000.000        14.989400     0.0026665800
       94000.000        14.989300     0.0026044600
       95000.000        14.989100     0.0025444300
       96500.000        14.988900     0.0024580700
       98000.000        14.988700     0.0023759200
       99000.000        14.988600     0.0023233500
       99500.000        14.988500     0.0022977000
       100000.00        14.988500     0.0022724500
