;  Atomic scattering factors for Pd.
;   
;  Concatenation of data from CXRO <http://www-cxro.lbl.gov>
;  and LLNL <http://www-phys.llnl.gov/V_Div/scattering/asf.html>
;  
;  E (eV) f1 f2
;---------------
       10.000000       -9999.0000        1.1505800
       10.161700       -9999.0000        1.2095000
       10.326100       -9999.0000        1.2714400
       10.493100       -9999.0000        1.3365500
       10.662800       -9999.0000        1.4049900
       10.835300       -9999.0000        1.4769400
       11.010600       -9999.0000        1.5469500
       11.188600       -9999.0000        1.6147300
       11.369600       -9999.0000        1.6854800
       11.553500       -9999.0000        1.7593400
       11.740400       -9999.0000        1.8364300
       11.930300       -9999.0000        1.9168900
       12.123200       -9999.0000        2.0008900
       12.319300       -9999.0000        2.0894800
       12.518600       -9999.0000        2.1842100
       12.721000       -9999.0000        2.2832500
       12.926800       -9999.0000        2.3867700
       13.135900       -9999.0000        2.4949800
       13.348300       -9999.0000        2.6081000
       13.564200       -9999.0000        2.7263500
       13.783600       -9999.0000        2.8428300
       14.006600       -9999.0000        2.9610700
       14.233100       -9999.0000        3.0842300
       14.463300       -9999.0000        3.2125100
       14.697300       -9999.0000        3.3461300
       14.935000       -9999.0000        3.4853100
       15.176500       -9999.0000        3.6175100
       15.422000       -9999.0000        3.7378400
       15.671400       -9999.0000        3.8621800
       15.924900       -9999.0000        3.9906600
       16.182500       -9999.0000        4.1234100
       16.444200       -9999.0000        4.2605700
       16.710200       -9999.0000        4.4023000
       16.980500       -9999.0000        4.5487500
       17.255100       -9999.0000        4.6905900
       17.534200       -9999.0000        4.8321100
       17.817800       -9999.0000        4.9779000
       18.106000       -9999.0000        5.1280800
       18.398900       -9999.0000        5.2828000
       18.696400       -9999.0000        5.4421900
       18.998800       -9999.0000        5.6063800
       19.306100       -9999.0000        5.7526600
       19.618400       -9999.0000        5.8894000
       19.935700       -9999.0000        6.0293900
       20.258200       -9999.0000        6.1727000
       20.585800       -9999.0000        6.3194200
       20.918800       -9999.0000        6.4696200
       21.257100       -9999.0000        6.6234000
       21.600900       -9999.0000        6.7679500
       21.950300       -9999.0000        6.9082900
       22.305300       -9999.0000        7.0515500
       22.666100       -9999.0000        7.1977600
       23.032700       -9999.0000        7.3470200
       23.405300       -9999.0000        7.4993700
       23.783800       -9999.0000        7.6548700
       24.168500       -9999.0000        7.8073700
       24.559400       -9999.0000        7.9415400
       24.956600       -9999.0000        8.0780100
       25.360300       -9999.0000        8.2168300
       25.770500       -9999.0000        8.3580300
       26.187300       -9999.0000        8.5016700
       26.610900       -9999.0000        8.6477700
       27.041300       -9999.0000        8.7783800
       27.478600       -9999.0000        8.8831800
       27.923100       -9999.0000        8.9892400
       28.374700       -9999.0000        9.0965600
       28.833700       -9999.0000        9.2051700
       29.300000        1.5472800        9.3150700
       29.773900        1.6819100        9.4193900
       30.255500        1.8084900        9.5102700
       30.744900        1.9277300        9.6020300
       31.242100        2.0425900        9.6946700
       31.747500        2.1537400        9.7882100
       32.260900        2.2608600        9.8826500
       32.782700        2.3617500        9.9780100
       33.313000        2.4539000        10.084200
       33.851800        2.5506800        10.202600
       34.399300        2.6543100        10.322300
       34.955700        2.7594700        10.443500
       35.521100        2.8650700        10.566100
       36.095600        2.9699900        10.690100
       36.679400        3.0675900        10.815600
       37.272700        3.1522100        10.954100
       37.875500        3.2513100        11.125500
       38.488200        3.3683900        11.299500
       39.110700        3.4969000        11.476300
       39.743200        3.6356400        11.655900
       40.386100        3.7842900        11.838200
       41.039300        3.9434300        12.023400
       41.703100        4.1139500        12.211600
       42.377600        4.2979300        12.402600
       43.063000        4.4992500        12.596600
       43.759500        4.7365200        12.793700
       44.467300        4.9850100        12.933000
       45.186500        5.2165500        13.061100
       45.917400        5.4365500        13.190500
       46.660000        5.6549400        13.321100
       47.414700        5.8733100        13.453100
       48.181600        6.0928800        13.586300
       48.960900        6.3140900        13.720900
       49.752800        6.5370600        13.856800
       50.557600        6.7607200        13.994000
       51.375300        6.9793600        14.132600
       52.206200        7.1943900        14.297200
       53.050600        7.4299800        14.482400
       53.908700        7.6920400        14.670000
       54.780600        7.9719800        14.860100
       55.666700        8.2720500        15.052600
       56.567000        8.5995300        15.247600
       57.482000        8.9527400        15.418800
       58.411700        9.3109300        15.579400
       59.356400        9.6767100        15.741700
       60.316500        10.060000        15.905700
       61.292100        10.465000        16.071400
       62.283400        10.897900        16.238800
       63.290800        11.368900        16.407900
       64.314500        11.911500        16.578800
       65.354700        12.506400        16.615500
       66.411800        13.049500        16.635000
       67.485900        13.596100        16.654600
       68.577500        14.171800        16.674300
       69.686700        14.829700        16.667900
       70.813800        15.495900        16.502900
       71.959100        16.076100        16.339500
       73.123000        16.662500        16.177700
       74.305700        17.314100        16.017500
       75.507600        17.986800        15.701300
       76.728900        18.563800        15.384000
       77.969900        19.148900        15.073100
       79.231000        19.860400        14.768400
       80.512500        20.669900        14.259200
       81.814700        21.307900        13.445000
       83.138000        21.747100        12.611700
       84.482700        22.012300        11.799800
       85.849100        22.178500        11.040200
       87.237700        22.274000        10.329500
       88.648700        22.316000        9.6645000
       90.082500        22.317700        9.0423200
       91.539500        22.289200        8.4602100
       93.020100        22.254200        7.9155600
       94.524600        22.213200        7.3703800
       96.053500        22.115200        6.8184100
       97.607100        21.973700        6.3077600
       99.185800        21.807400        5.8353700
       100.79000        21.623800        5.3983400
       102.42000        21.429000        4.9940600
       104.07700        21.227700        4.6200400
       105.76000        21.028400        4.2740400
       107.47100        20.843700        3.9539500
       109.20900        20.669300        3.5721600
       110.97500        20.417700        3.2092700
       112.77000        20.130300        2.8832300
       114.59400        19.816600        2.5980700
       116.44800        19.504600        2.3780400
       118.33100        19.205800        2.1766500
       120.24500        18.906900        1.9923100
       122.19000        18.598900        1.8235800
       124.16600        18.277800        1.7030900
       126.17500        17.980100        1.6018300
       128.21500        17.677400        1.5163000
       130.28900        17.380400        1.4631100
       132.39700        17.084000        1.4329100
       134.53800        16.805000        1.4228200
       136.71400        16.532800        1.4466300
       138.92500        16.285000        1.4778600
       141.17200        16.036500        1.5248900
       143.45600        15.811900        1.6038800
       145.77600        15.613700        1.6869700
       148.13400        15.432900        1.7734200
       150.53000        15.266600        1.8641900
       152.96400        15.115300        1.9596200
       155.43900        14.977700        2.0516000
       157.95300        14.847400        2.1465200
       160.50700        14.727100        2.2458400
       163.10300        14.618800        2.3497600
       165.74200        14.531700        2.4584800
       168.42200        14.475700        2.5454600
       171.14600        14.399900        2.6144600
       173.91500        14.320200        2.6853200
       176.72700        14.241200        2.7581100
       179.58600        14.164000        2.8328700
       182.49100        14.090400        2.9096500
       185.44200        14.022400        2.9851700
       188.44200        13.953300        3.0594700
       191.48900        13.885400        3.1356200
       194.58700        13.819900        3.2136700
       197.73400        13.757500        3.2936600
       200.93200        13.699800        3.3756500
       204.18200        13.650300        3.4596700
       207.48500        13.610300        3.5293700
       210.84000        13.560800        3.5929800
       214.25100        13.508100        3.6577200
       217.71600        13.454200        3.7236400
       221.23700        13.400400        3.7907500
       224.81600        13.347800        3.8590700
       228.45200        13.300300        3.9286100
       232.14700        13.266900        3.9907500
       235.90200        13.221700        4.0315000
       239.71700        13.165100        4.0726700
       243.59500        13.102900        4.1136800
       247.53500        13.036000        4.1546500
       251.53800        12.968500        4.1960200
       255.60700        12.911700        4.2306800
       259.74100        12.837100        4.2359900
       263.94200        12.741800        4.2413000
       268.21100        12.635800        4.2466300
       272.54900        12.515500        4.2354100
       276.95700        12.368700        4.2207000
       281.43700        12.196800        4.2060500
       285.98900        11.998800        4.1931100
       290.61500        11.776800        4.1833300
       295.31500        11.525500        4.1735600
       300.09200        11.234400        4.1691400
       304.94500        10.909300        4.1728500
       309.87800        10.522900        4.1765600
       314.89000        10.092000        4.2460200
       319.98300        9.6385300        4.3280700
       325.15800        9.1135300        4.4197600
       330.41800        8.5478700        4.5901300
       335.76200        7.9278100        4.7670700
       341.19200        7.1976100        4.9711000
       346.71100        6.2608300        5.2019600
       352.31900        5.1339800        5.8128400
       358.01700        3.9490700        6.7662800
       363.80800        2.8848600        8.0813300
       369.69200        2.0148400        9.8867000
       375.67200        2.0777000        11.936200
       381.74800        2.2341400        13.595700
       387.92200        2.8195200        15.374300
       394.19700        3.4833100        16.720100
       400.57300        4.4375300        18.183900
       407.05200        5.4585400        19.050700
       413.63500        6.5230800        19.890200
       420.32600        7.4624600        20.362100
       427.12400        8.2389800        20.845100
       434.03200        8.9936500        21.331400
       441.05200        9.7020700        21.752000
       448.18600        10.376400        22.180900
       455.43500        11.041400        22.618200
       462.80200        11.717800        23.064200
       470.28700        12.508300        23.491100
       477.89400        13.255200        23.772900
       485.62300        13.936400        24.058200
       493.47800        14.606300        24.346900
       501.45900        15.277700        24.639100
       509.57000        15.971600        24.932300
       517.81200        16.670500        25.193700
       526.18700        17.379100        25.457800
       534.69800        18.115700        25.724700
       543.34600        18.923000        25.994300
       552.13400        19.817700        26.128200
       561.06500        20.648800        26.146800
       570.13900        21.406600        26.165400
       579.36100        22.152800        26.184000
       588.73200        22.960000        26.202600
       598.25400        23.771000        26.091300
       607.93000        24.491100        25.916900
       617.76300        25.151900        25.743700
       627.75500        25.772100        25.571700
       637.90800        26.340500        25.400800
       648.22600        26.905100        25.304700
       658.71100        27.495400        25.216700
       669.36500        28.141800        25.129100
       680.19100        28.829500        24.980800
       691.19300        29.477500        24.753500
       702.37200        30.090900        24.528300
       713.73300        30.763900        24.305200
       725.27700        31.419600        23.948100
       737.00800        31.975900        23.553000
       748.92800        32.476200        23.164500
       761.04200        32.920000        22.782300
       773.35100        33.347300        22.445000
       785.85900        33.791800        22.092200
       798.57000        34.208200        21.709200
       811.48600        34.582100        21.331100
       824.61100        34.933200        20.960100
       837.94900        35.265800        20.595900
       851.50200        35.581700        20.236100
       865.27400        35.881700        19.880900
       879.26900        36.166400        19.530200
       893.49100        36.437200        19.185900
       907.94300        36.696100        18.847500
       922.62800        36.948000        18.515100
       937.55100        37.190200        18.181400
       952.71500        37.419200        17.852000
       968.12400        37.638600        17.527100
       983.78300        37.851100        17.208100
       999.69500        38.057800        16.891600
       1015.8600        38.268700        16.577600
       1032.2900        38.470500        16.240300
       1048.9900        38.644600        15.906000
       1065.9600        38.804400        15.574700
       1083.2000        38.949000        15.250200
       1100.7200        39.082200        14.932400
       1118.5200        39.204900        14.621200
       1136.6100        39.318300        14.316800
       1155.0000        39.423200        14.018600
       1173.6800        39.520200        13.726600
       1192.6600        39.609800        13.440600
       1211.9500        39.692400        13.160600
       1231.5500        39.768100        12.886300
       1251.4700        39.837500        12.618100
       1271.7200        39.901200        12.355900
       1292.2900        39.959600        12.099400
       1313.1900        40.013100        11.848300
       1334.4300        40.061900        11.602600
       1356.0100        40.106200        11.361900
       1377.9400        40.146100        11.126000
       1400.2300        40.181800        10.895100
       1422.8800        40.213600        10.669000
       1445.8900        40.241600        10.447500
       1469.2800        40.266100        10.230400
       1493.0400        40.287200        10.017500
       1517.1900        40.305000        9.8080400
       1541.7300        40.318400        9.6028100
       1566.6700        40.328400        9.4018900
       1592.0100        40.335200        9.2050400
       1617.7600        40.338700        9.0122900
       1643.9200        40.339400        8.8235900
       1670.5100        40.337400        8.6389400
       1697.5300        40.333500        8.4582000
       1724.9900        40.328800        8.2813200
       1752.8900        40.323800        8.1012600
       1781.2400        40.311400        7.9227700
       1810.0500        40.293200        7.7464200
       1839.3200        40.269600        7.5742000
       1869.0700        40.241700        7.4058600
       1899.3000        40.209700        7.2413100
       1930.0200        40.173900        7.0802800
       1961.2400        40.134100        6.9228100
       1992.9600        40.090200        6.7688600
       2025.2000        40.043500        6.6221700
       2057.9500        39.997500        6.4706400
       2091.2400        39.943500        6.3208800
       2125.0600        39.883300        6.1739300
       2159.4300        39.817400        6.0298300
       2194.3600        39.745800        5.8878200
       2229.8500        39.667600        5.7479000
       2265.9200        39.582500        5.6105800
       2302.5700        39.490200        5.4756100
       2339.8100        39.389800        5.3428900
       2377.6600        39.280800        5.2123500
       2416.1100        39.162200        5.0840900
       2455.1900        39.033200        4.9580400
       2494.9000        38.892100        4.8341400
       2535.2600        38.737700        4.7123000
       2576.2600        38.568000        4.5925700
       2617.9300        38.380900        4.4749400
       2660.2700        38.173200        4.3593600
       2703.3000        37.941200        4.2456900
       2747.0300        37.680100        4.1339900
       2791.4600        37.383300        4.0242400
       2836.6100        37.041300        3.9164600
       2882.4900        36.640900        3.8104800
       2929.1100        36.161400        3.7062800
       2976.4800        35.569100        3.6040100
       3024.6300        34.801500        3.5034900
       3073.5500        33.720700        3.4047300
       3123.2600        31.894900        3.3076400
       3173.2000        16.395100        3.2143800
       3173.4000        16.395800        10.985900
       3173.7800        20.253000        10.983900
       3225.1100        31.576000        10.717600
       3277.2700        32.588300        10.457500
       3330.2000        26.027800        10.204300
       3330.4000        26.032000        14.058900
       3384.1500        34.550100        13.724000
       3438.8800        35.964800        13.396400
       3494.5000        36.833600        13.076300
       3551.0200        37.307900        12.764400
       3604.2000        34.759200        12.482000
       3604.4000        34.761400        14.080600
       3608.4600        36.704500        14.059800
       3666.8200        38.680200        13.765800
       3726.1300        39.543200        13.476500
       3786.4000        40.212600        13.188400
       3847.6400        40.775700        12.903600
       3909.8700        41.267200        12.622000
       3973.1100        41.702400        12.343900
       4037.3800        42.093500        12.069000
       4102.6800        42.447400        11.797200
       4169.0300        42.769500        11.529000
       4236.4600        43.063400        11.264800
       4304.9800        43.333300        11.005200
       4374.6200        43.581300        10.748200
       4445.3700        43.809700        10.495700
       4517.2700        44.020200        10.247500
       4590.3300        44.214400        10.003400
       4664.5800        44.394000        9.7632200
       4740.0300        44.559800        9.5272800
       4816.6900        44.713000        9.2957700
       4894.6000        44.854700        9.0684700
       4973.7700        44.985500        8.8452800
       5054.2100        45.106300        8.6264100
       5135.9600        45.217800        8.4117700
       5219.0300        45.320500        8.2014600
       5303.4400        45.415000        7.9951700
       5389.2200        45.501900        7.7932400
       5476.3900        45.581700        7.5954800
       5564.9700        45.654800        7.4018800
       5654.9800        45.721700        7.2123400
       5746.4400        45.782600        7.0267700
       5839.3900        45.838000        6.8453500
       5933.8300        45.888100        6.6678600
       6029.8100        45.933300        6.4944200
       6127.3300        45.974100        6.3248500
       6226.4400        46.010400        6.1590000
       6327.1500        46.042700        5.9971200
       6429.4800        46.071200        5.8388500
       6533.4800        46.096000        5.6842800
       6639.1500        46.117500        5.5333500
       6746.5400        46.135700        5.3860400
       6855.6500        46.151100        5.2423100
       6966.5400        46.163600        5.1018700
       7079.2200        46.173400        4.9648600
       7193.7200        46.180800        4.8312400
       7310.0700        46.185800        4.7007900
       7428.3100        46.188600        4.5736800
       7548.4500        46.189300        4.4496300
       7670.5400        46.188100        4.3288300
       7794.6100        46.185100        4.2109800
       7920.6800        46.180300        4.0960000
       8048.7900        46.174100        3.9840800
       8178.9800        46.166200        3.8749200
       8311.2600        46.157000        3.7686300
       8445.6900        46.146500        3.6650100
       8582.2900        46.134800        3.5641500
       8721.1100        46.121900        3.4658200
       8862.1600        46.107900        3.3700900
       9005.5000        46.092900        3.2767400
       9151.1600        46.076900        3.1860700
       9299.1700        46.060100        3.0976800
       9449.5800        46.042600        3.0116800
       9602.4200        46.024200        2.9278200
       9757.7300        46.005000        2.8463400
       9915.5500        45.985300        2.7670200
       10075.900        45.964900        2.6898100
       10238.900        45.943900        2.6146800
       10404.500        45.922400        2.5415800
       10572.800        45.900400        2.4704600
       10743.800        45.877900        2.4012700
       10917.600        45.854900        2.3339700
       11094.200        45.831500        2.2685100
       11273.600        45.807800        2.2048500
       11455.900        45.783600        2.1429300
       11641.200        45.759100        2.0827200
       11829.500        45.734200        2.0241700
       12020.800        45.709100        1.9672400
       12215.300        45.683500        1.9118900
       12412.800        45.657700        1.8580800
       12613.600        45.631600        1.8057700
       12817.600        45.605100        1.7549300
       13025.000        45.578400        1.7055000
       13235.600        45.551300        1.6574600
       13449.700        45.523900        1.6107700
       13667.200        45.496200        1.5653900
       13888.300        45.468200        1.5212900
       14112.900        45.439700        1.4784400
       14341.200        45.410900        1.4368000
       14573.100        45.381700        1.3963400
       14808.900        45.352100        1.3570300
       15048.400        45.321900        1.3188400
       15291.800        45.291300        1.2817400
       15539.100        45.260000        1.2456900
       15790.400        45.228200        1.2106700
       16045.800        45.195700        1.1766600
       16305.400        45.162400        1.1436100
       16569.100        45.128200        1.1115200
       16837.100        45.093100        1.0803500
       17109.400        45.057000        1.0500700
       17386.100        45.019600        1.0206700
       17667.400        44.980900       0.99211300
       17953.100        44.940700       0.96438000
       18243.500        44.898800       0.93744800
       18538.600        44.854800       0.91129600
       18838.400        44.808600       0.88590000
       19143.100        44.759700       0.86124000
       19452.700        44.707700       0.83729600
       19767.400        44.652000       0.81404600
       20087.100        44.592000       0.79147300
       20412.000        44.526800       0.76955600
       20742.100        44.455300       0.74827700
       21077.600        44.375800       0.72761700
       21418.500        44.286500       0.70756100
       21765.000        44.184200       0.68808900
       22117.000        44.064700       0.66918600
       22474.700        43.921100       0.65083600
       22838.200        43.741900       0.63302200
       23207.600        43.505100       0.61573000
       23583.000        43.161000       0.59894400
       23964.400        42.549700       0.58265000
       24350.200        34.645500       0.56687000
       24350.400        34.645600        3.6114100
       24352.000        37.401200        3.6110400
       24745.900        42.737000        3.5235100
       25146.200        43.462600        3.4375300
       25552.900        43.897700        3.3531100
       25966.200        44.210400        3.2702600
       26386.100        44.454200        3.1889600
       26812.900        44.653100        3.1092400
       27246.600        44.820400        3.0310800
       27687.300        44.963800        2.9544700
       28135.100        45.088700        2.8794100
       28590.200        45.198600        2.8058900
       29052.600        45.296200        2.7339100
       29522.500        45.383300        2.6634400
       30000.000        45.461600        2.5944800
       30100.000        45.472500        2.5572000
       30200.000        45.487200        2.5433600
       30300.000        45.501600        2.5295100
       30400.000        45.515600        2.5156700
       30500.000        45.529200        2.5023000
       30600.000        45.542500        2.4889400
       30700.000        45.555400        2.4755800
       30800.000        45.568100        2.4622100
       30900.000        45.580400        2.4493000
       31000.000        45.592600        2.4364000
       31100.000        45.604400        2.4234900
       31200.000        45.616000        2.4105900
       31350.000        45.632900        2.3918000
       31500.000        45.649500        2.3730200
       31600.000        45.660300        2.3606100
       31700.000        45.670700        2.3482000
       31800.000        45.680900        2.3357900
       31900.000        45.690800        2.3233800
       32000.000        45.700500        2.3113800
       32100.000        45.710000        2.2993800
       32200.000        45.719200        2.2873900
       32300.000        45.728300        2.2753900
       32450.000        45.741500        2.2579100
       32600.000        45.754400        2.2404300
       32800.000        45.770900        2.2177800
       33000.000        45.786800        2.1951200
       33200.000        45.802100        2.1729700
       33400.000        45.816600        2.1508300
       33600.000        45.830600        2.1293900
       33800.000        45.844000        2.1079500
       33950.000        45.853700        2.0922700
       34100.000        45.863200        2.0766000
       34300.000        45.875300        2.0561700
       34500.000        45.886900        2.0357400
       34700.000        45.898000        2.0159400
       34900.000        45.908600        1.9961500
       35100.000        45.918700        1.9770900
       35300.000        45.928500        1.9580400
       35500.000        45.938000        1.9396100
       35700.000        45.947200        1.9211700
       36030.000        45.961700        1.8915800
       36300.000        45.973100        1.8680800
       36500.000        45.981400        1.8506800
       36800.000        45.993200        1.8248300
       37000.000        46.000500        1.8075900
       37300.000        46.010900        1.7826800
       37500.000        46.017500        1.7660700
       37800.000        46.026900        1.7420500
       38000.000        46.032900        1.7260400
       38300.000        46.041400        1.7026600
       38500.000        46.046800        1.6870700
       38800.000        46.054400        1.6645100
       39000.000        46.059200        1.6494700
       39300.000        46.066000        1.6277400
       39500.000        46.070300        1.6132600
       39800.000        46.076500        1.5922800
       40000.000        46.080300        1.5782900
       40400.000        46.087600        1.5517200
       40800.000        46.094400        1.5251500
       41100.000        46.099200        1.5062000
       41500.000        46.105100        1.4809400
       41900.000        46.110700        1.4568800
       42300.000        46.115800        1.4328300
       43000.000        46.124000        1.3927400
       43800.000        46.132000        1.3487500
       44500.000        46.138100        1.3120300
       45300.000        46.144300        1.2716500
       46000.000        46.148500        1.2374500
       46500.000        46.151000        1.2138900
       47000.000        46.153100        1.1910300
       47500.000        46.154700        1.1688300
       48000.000        46.156400        1.1472700
       48500.000        46.157500        1.1261400
       49000.000        46.158500        1.1056100
       49500.000        46.159200        1.0856600
       50000.000        46.159600        1.0662600
       51000.000        46.159700        1.0290500
       52000.000        46.159200       0.99382900
       53000.000        46.158200       0.96044800
       54000.000        46.156600       0.92872400
       55000.000        46.154800       0.89860200
       56000.000        46.152500       0.86972000
       56800.000        46.150400       0.84763800
       57530.000        46.148400       0.82823800
       58000.000        46.147000       0.81611000
       58500.000        46.145600       0.80340100
       59540.000        46.142200       0.77792700
       59800.000        46.141300       0.77175300
       60000.000        46.140600       0.76705600
       60800.000        46.137500       0.74862300
       61500.000        46.134700       0.73305000
       62300.000        46.131600       0.71585600
       63000.000        46.128900       0.70131700
       64000.000        46.125000       0.68132500
       65000.000        46.121000       0.66219900
       65900.000        46.117500       0.64562400
       66830.000        46.113900       0.62916000
       67400.000        46.111500       0.61938700
       68000.000        46.109000       0.60935000
       69000.000        46.104900       0.59317000
       70000.000        46.100700       0.57764400
       71000.000        46.096600       0.56258600
       72000.000        46.092500       0.54812300
       72800.000        46.089100       0.53696100
       73500.000        46.086200       0.52747700
       74200.000        46.083300       0.51824900
       74960.000        46.080200       0.50850700
       75500.000        46.078000       0.50173400
       76000.000        46.076000       0.49558400
       77110.000        46.071400       0.48233600
       78600.000        46.065400       0.46539200
       79300.000        46.062700       0.45774500
       80000.000        46.059900       0.45028900
       81500.000        46.054100       0.43486500
       83000.000        46.048300       0.42023800
       84000.000        46.044600       0.41090000
       85000.000        46.040900       0.40187800
       86500.000        46.035400       0.38883100
       88000.000        46.030000       0.37642100
       89000.000        46.026500       0.36848100
       90000.000        46.023000       0.36079400
       91500.000        46.018000       0.34968800
       93000.000        46.012900       0.33909600
       94000.000        46.009600       0.33230400
       95000.000        46.006400       0.32571800
       96500.000        46.001700       0.31618900
       98000.000        45.997000       0.30707900
       99000.000        45.994000       0.30122700
       99500.000        45.992500       0.29836400
       100000.00        45.991000       0.29554300
