;  Atomic scattering factors for Pm.
;   
;  Concatenation of data from CXRO <http://www-cxro.lbl.gov>
;  and LLNL <http://www-phys.llnl.gov/V_Div/scattering/asf.html>
;  
;  E (eV) f1 f2
;---------------
       10.000000       -9999.0000       0.21640900
       10.161700       -9999.0000       0.22429000
       10.326100       -9999.0000       0.23245800
       10.493100       -9999.0000       0.24092400
       10.662800       -9999.0000       0.24969800
       10.835300       -9999.0000       0.25879100
       11.010600       -9999.0000       0.26821600
       11.188600       -9999.0000       0.27798400
       11.369600       -9999.0000       0.28810700
       11.553500       -9999.0000       0.29859900
       11.740400       -9999.0000       0.30947400
       11.930300       -9999.0000       0.32074400
       12.123200       -9999.0000       0.33242500
       12.319300       -9999.0000       0.34257700
       12.518600       -9999.0000       0.35199500
       12.721000       -9999.0000       0.36167200
       12.926800       -9999.0000       0.37161500
       13.135900       -9999.0000       0.38183100
       13.348300       -9999.0000       0.39232800
       13.564200       -9999.0000       0.40311400
       13.783600       -9999.0000       0.41358000
       14.006600       -9999.0000       0.42276300
       14.233100       -9999.0000       0.43214900
       14.463300       -9999.0000       0.44174500
       14.697300       -9999.0000       0.45460800
       14.935000       -9999.0000       0.46794000
       15.176500       -9999.0000       0.48166300
       15.422000       -9999.0000       0.49578900
       15.671400       -9999.0000       0.51032800
       15.924900       -9999.0000       0.52529400
       16.182500       -9999.0000       0.54069900
       16.444200       -9999.0000       0.55751200
       16.710200       -9999.0000       0.57565900
       16.980500       -9999.0000       0.59439600
       17.255100       -9999.0000       0.61374300
       17.534200       -9999.0000       0.63533400
       17.817800       -9999.0000       0.66987100
       18.106000       -9999.0000       0.70628400
       18.398900       -9999.0000       0.74467700
       18.696400       -9999.0000       0.79721000
       18.998800       -9999.0000       0.88607200
       19.306100       -9999.0000       0.98484000
       19.618400       -9999.0000        1.1135900
       19.935700       -9999.0000        1.3576500
       20.258200       -9999.0000        1.6552000
       20.585800       -9999.0000        2.0396700
       20.918800       -9999.0000        2.6236200
       21.257100       -9999.0000        3.2273100
       21.600900       -9999.0000        3.8280300
       21.950300       -9999.0000        4.5405600
       22.305300       -9999.0000        5.3984000
       22.666100       -9999.0000        6.4293800
       23.032700       -9999.0000        7.5996800
       23.405300       -9999.0000        8.8877500
       23.783800       -9999.0000        10.321800
       24.168500       -9999.0000        11.935200
       24.559400       -9999.0000        12.953000
       24.956600       -9999.0000        13.609600
       25.360300       -9999.0000        14.299500
       25.770500       -9999.0000        14.677000
       26.187300       -9999.0000        14.965400
       26.610900       -9999.0000        15.259400
       27.041300       -9999.0000        15.462300
       27.478600       -9999.0000        15.178200
       27.923100       -9999.0000        14.899400
       28.374700       -9999.0000        14.625600
       28.833700       -9999.0000        14.356900
       29.300000        8.4561500        14.093200
       29.773900        9.0867400        13.790300
       30.255500        9.6256300        13.404100
       30.744900        10.087200        13.028700
       31.242100        10.499000        12.663800
       31.747500        10.883700        12.309200
       32.260900        11.270300        11.964500
       32.782700        11.622200        11.506000
       33.313000        11.868900        11.049900
       33.851800        12.047200        10.611900
       34.399300        12.162100        10.191300
       34.955700        12.193000        9.8289200
       35.521100        12.243200        9.5437000
       36.095600        12.296900        9.2667500
       36.679400        12.340700        8.9978400
       37.272700        12.364600        8.7367300
       37.875500        12.354300        8.4832100
       38.488200        12.335100        8.3014200
       39.110700        12.335900        8.1273500
       39.743200        12.339500        7.9569200
       40.386100        12.339700        7.7900700
       41.039300        12.333100        7.6267100
       41.703100        12.316000        7.4667800
       42.377600        12.276700        7.3102000
       43.063000        12.187300        7.1936700
       43.759500        12.141400        7.1311500
       44.467300        12.120900        7.0691800
       45.186500        12.110200        7.0077500
       45.917400        12.106300        6.9468600
       46.660000        12.109000        6.8855900
       47.414700        12.112300        6.8183300
       48.181600        12.113800        6.7517300
       48.960900        12.113800        6.6857800
       49.752800        12.112300        6.6204700
       50.557600        12.109000        6.5558000
       51.375300        12.103800        6.4917600
       52.206200        12.097000        6.4267500
       53.050600        12.084600        6.3609300
       53.908700        12.066500        6.2957900
       54.780600        12.041100        6.2313300
       55.666700        12.003100        6.1675000
       56.567000        11.957900        6.1261600
       57.482000        11.920600        6.0902900
       58.411700        11.883600        6.0546500
       59.356400        11.841200        6.0192100
       60.316500        11.797600        5.9976600
       61.292100        11.759000        5.9776800
       62.283400        11.721500        5.9577700
       63.290800        11.683300        5.9379300
       64.314500        11.643700        5.9181500
       65.354700        11.601800        5.8984300
       66.411800        11.557100        5.8787900
       67.485900        11.508800        5.8592000
       68.577500        11.455600        5.8396900
       69.686700        11.395800        5.8239600
       70.813800        11.335200        5.8110600
       71.959100        11.271900        5.7981900
       73.123000        11.204600        5.7853500
       74.305700        11.132500        5.7725400
       75.507600        11.055100        5.7597600
       76.728900        10.971800        5.7470100
       77.969900        10.882200        5.7342700
       79.231000        10.785900        5.7215800
       80.512500        10.682500        5.7089000
       81.814700        10.572600        5.6962700
       83.138000        10.460500        5.6836500
       84.482700        10.336000        5.6488000
       85.849100        10.188900        5.6130900
       87.237700        10.021200        5.5776000
       88.648700        9.8337800        5.5423400
       90.082500        9.6254100        5.5073000
       91.539500        9.3942400        5.4724800
       93.020100        9.1379800        5.4378800
       94.524600        8.8538600        5.4035000
       96.053500        8.5386100        5.3693400
       97.607100        8.1884500        5.3353900
       99.185800        7.7991500        5.3016600
       100.79000        7.3677100        5.2681400
       102.42000        6.9021300        5.2348300
       104.07700        6.3720500        5.1405800
       105.76000        5.7171100        5.0301500
       107.47100        4.9352500        4.9220900
       109.20900        4.0070800        4.8163500
       110.97500        2.8993200        4.7068900
       112.77000        1.5384100        4.5920200
       114.59400      -0.18768300        4.5166200
       116.44800       -2.2989200        4.5167300
       118.33100       -5.0546500        4.5168400
       120.24500       -9.0533600        4.5780000
       122.19000       -15.533800        4.9973200
       124.16600       -27.301900        10.229100
       126.17500       -38.897200        26.572100
       128.21500       -22.710100        57.110400
       130.28900       -4.7109500        56.866400
       132.39700        7.3777500        54.501700
       134.53800        14.874400        50.212600
       136.71400        19.544200        46.261100
       138.92500        22.604800        42.685900
       141.17200        24.958500        40.019800
       143.45600        26.909500        37.520200
       145.77600        28.504100        35.176700
       148.13400        29.767700        32.979700
       150.53000        30.736800        30.919800
       152.96400        31.467000        29.053800
       155.43900        32.063700        27.335100
       157.95300        32.527900        25.717900
       160.50700        32.869900        24.196500
       163.10300        33.102200        22.765000
       165.74200        33.236500        21.418300
       168.42200        33.281000        20.151100
       171.14600        33.241500        18.959000
       173.91500        33.117200        17.837400
       176.72700        32.893600        16.782200
       179.58600        32.473300        15.882600
       182.49100        32.173600        15.248900
       185.44200        31.941700        14.640600
       188.44200        31.731700        14.056400
       191.48900        31.524800        13.495600
       194.58700        31.311400        12.957100
       197.73400        31.083800        12.440200
       200.93200        30.834200        11.943800
       204.18200        30.548900        11.467300
       207.48500        30.128700        11.044000
       210.84000        29.777000        10.836700
       214.25100        29.518500        10.633200
       217.71600        29.291700        10.433600
       221.23700        29.081600        10.237700
       224.81600        28.878400        10.045500
       228.45200        28.673500        9.8569400
       232.14700        28.456500        9.6718800
       235.90200        28.179300        9.4903000
       239.71700        27.885500        9.4391300
       243.59500        27.670200        9.4375500
       247.53500        27.497500        9.4359800
       251.53800        27.349300        9.4343900
       255.60700        27.217400        9.4328200
       259.74100        27.096000        9.4312400
       263.94200        26.980100        9.4296700
       268.21100        26.863500        9.4281000
       272.54900        26.731700        9.4265200
       276.95700        26.562500        9.4794500
       281.43700        26.442000        9.5871000
       285.98900        26.366400        9.6959700
       290.61500        26.312300        9.8060700
       295.31500        26.276200        9.9174400
       300.09200        26.255900        10.030100
       304.94500        26.249800        10.144000
       309.87800        26.257200        10.259100
       314.89000        26.277400        10.375600
       319.98300        26.310100        10.493500
       325.15800        26.355500        10.612600
       330.41800        26.413900        10.733200
       335.76200        26.486100        10.855000
       341.19200        26.574000        10.978300
       346.71100        26.681400        11.103000
       352.31900        26.826000        11.222400
       358.01700        26.969600        11.297300
       363.80800        27.110200        11.372800
       369.69200        27.256000        11.448700
       375.67200        27.414500        11.525100
       381.74800        27.595400        11.602000
       387.92200        27.837500        11.679400
       394.19700        28.070900        11.620600
       400.57300        28.257200        11.553400
       407.05200        28.408500        11.486500
       413.63500        28.541400        11.420000
       420.32600        28.658700        11.353900
       427.12400        28.761600        11.288200
       434.03200        28.831400        11.223000
       441.05200        28.902300        11.204400
       448.18600        28.987700        11.185700
       455.43500        29.077300        11.167100
       462.80200        29.168900        11.148500
       470.28700        29.262100        11.130000
       477.89400        29.356700        11.111400
       485.62300        29.453500        11.092900
       493.47800        29.553900        11.074500
       501.45900        29.663200        11.056000
       509.57000        29.780700        11.018300
       517.81200        29.891500        10.967600
       526.18700        29.993700        10.911500
       534.69800        30.089700        10.845600
       543.34600        30.173700        10.775100
       552.13400        30.250900        10.705200
       561.06500        30.322000        10.629000
       570.13900        30.383000        10.550100
       579.36100        30.434000        10.471100
       588.73200        30.477000        10.392500
       598.25400        30.512500        10.314500
       607.93000        30.541200        10.237200
       617.76300        30.564000        10.160400
       627.75500        30.583500        10.083600
       637.90800        30.598500        10.000100
       648.22600        30.604000        9.9067200
       658.71100        30.589800        9.8072000
       669.36500        30.555100        9.7086300
       680.19100        30.501900        9.6252400
       691.19300        30.445700        9.5533200
       702.37200        30.395900        9.4831400
       713.73300        30.341000        9.3962400
       725.27700        30.262500        9.2983200
       737.00800        30.163000        9.2014000
       748.92800        30.044400        9.1054600
       761.04200        29.906800        9.0103500
       773.35100        29.750200        8.9147100
       785.85900        29.571000        8.8147400
       798.57000        29.361300        8.7115100
       811.48600        29.119300        8.6095800
       824.61100        28.842700        8.5087400
       837.94900        28.527600        8.4089800
       851.50200        28.168100        8.3088300
       865.27400        27.756000        8.2077500
       879.26900        27.279200        8.1060400
       893.49100        26.725100        8.0056900
       907.94300        26.076200        7.9066400
       922.62800        25.308400        7.8088800
       937.55100        24.380200        7.7070700
       952.71500        23.228800        7.6054400
       968.12400        21.747000        7.5041800
       983.78300        19.726600        7.4040400
       999.69500        16.657500        7.3052600
       1015.8600        10.497100        7.2078300
       1026.8000       -21.718500        7.1435200
       1027.0000       -21.716400        28.735500
       1032.2900        5.6124300        28.748100
       1048.9900        15.358500        28.787400
       1065.9600        19.378900        28.826900
       1083.2000        22.020200        28.866200
       1100.7200        24.029200        28.905600
       1118.5200        25.676700        28.945000
       1136.6100        27.091900        28.984400
       1155.0000        28.346700        29.023900
       1173.6800        29.485300        29.063500
       1192.6600        30.537300        29.103200
       1211.9500        31.523200        29.142900
       1231.5500        32.458300        29.182900
       1251.4700        33.354200        29.222700
       1271.7200        34.220300        29.262400
       1292.2900        35.064100        29.302200
       1313.1900        35.893100        29.342300
       1334.4300        36.714200        29.382400
       1356.0100        37.533500        29.422100
       1377.9400        38.358700        29.462400
       1400.2300        39.199700        29.502700
       1422.8800        40.070500        29.542900
       1445.8900        41.000000        29.583200
       1469.2800        42.046700        29.557800
       1493.0400        43.225900        29.432200
       1517.1900        44.290400        28.890100
       1541.7300        45.141000        28.300900
       1566.6700        45.809200        27.723600
       1592.0100        46.319600        27.158200
       1617.7600        46.523400        26.873900
       1643.9200        47.186200        27.122100
       1670.5100        48.153800        26.695400
       1697.5300        48.924400        26.155400
       1724.9900        49.544400        25.626400
       1752.8900        50.102600        25.094400
       1781.2400        50.606100        24.568700
       1810.0500        51.064800        24.050200
       1839.3200        51.485100        23.542900
       1869.0700        51.873900        23.046400
       1899.3000        52.235100        22.560300
       1930.0200        52.571800        22.084400
       1961.2400        52.886200        21.618700
       1992.9600        53.177700        21.162900
       2025.2000        53.464900        20.726700
       2057.9500        53.737400        20.278800
       2091.2400        53.985900        19.838300
       2125.0600        54.217100        19.405600
       2159.4300        54.432100        18.980400
       2194.3600        54.632500        18.563400
       2229.8500        54.819000        18.153700
       2265.9200        54.992400        17.752000
       2302.5700        55.153800        17.357600
       2339.8100        55.303300        16.970700
       2377.6600        55.441900        16.591500
       2416.1100        55.570100        16.219600
       2455.1900        55.688700        15.855200
       2494.9000        55.797600        15.497300
       2535.2600        55.897500        15.147300
       2576.2600        55.989200        14.804300
       2617.9300        56.073000        14.468000
       2660.2700        56.149000        14.138300
       2703.3000        56.217200        13.815400
       2747.0300        56.278400        13.499700
       2791.4600        56.333300        13.190400
       2836.6100        56.381400        12.887300
       2882.4900        56.423800        12.591300
       2929.1100        56.460600        12.300800
       2976.4800        56.491100        12.016300
       3024.6300        56.516200        11.738700
       3073.5500        56.536500        11.466600
       3123.2600        56.551600        11.200100
       3173.7800        56.561700        10.939800
       3225.1100        56.567300        10.685100
       3277.2700        56.568400        10.435900
       3330.2800        56.565000        10.192200
       3384.1500        56.557500        9.9537300
       3438.8800        56.545700        9.7205600
       3494.5000        56.529900        9.4925600
       3551.0200        56.510100        9.2696100
       3608.4600        56.486400        9.0516000
       3666.8200        56.458900        8.8384500
       3726.1300        56.427400        8.6300000
       3786.4000        56.392200        8.4263000
       3847.6400        56.353200        8.2271500
       3909.8700        56.310300        8.0323600
       3973.1100        56.263500        7.8420500
       4037.3800        56.212800        7.6560200
       4102.6800        56.158200        7.4742000
       4169.0300        56.099400        7.2964100
       4236.4600        56.036400        7.1227700
       4304.9800        55.969000        6.9529400
       4374.6200        55.896900        6.7869600
       4445.3700        55.820000        6.6248300
       4517.2700        55.738000        6.4663100
       4590.3300        55.650500        6.3113800
       4664.5800        55.557200        6.1600800
       4740.0300        55.457500        6.0121300
       4816.6900        55.350900        5.8675600
       4894.6000        55.236700        5.7263800
       4973.7700        55.114100        5.5882800
       5054.2100        54.982100        5.4534300
       5135.9600        54.839600        5.3215900
       5219.0300        54.685100        5.1927800
       5303.4400        54.516700        5.0668100
       5389.2200        54.332200        4.9438200
       5476.3900        54.128700        4.8236100
       5564.9700        53.902400        4.7061700
       5654.9800        53.648300        4.5913700
       5746.4400        53.359300        4.4792900
       5839.3900        53.025400        4.3697000
       5933.8300        52.631500        4.2624700
       6029.8100        52.152700        4.1577800
       6127.3300        51.545300        4.0555800
       6226.4400        50.717200        3.9556200
       6327.1500        49.412400        3.8579600
       6429.4800        46.045300        3.7624400
       6459.2000        33.190100        3.7354200
       6459.4000        33.191100        10.841500
       6533.4800        48.144000        10.615800
       6639.1500        49.978000        10.306200
       6746.5400        50.695800        10.005500
       6855.6500        50.794900        9.7135700
       6966.5400        49.735500        9.4302900
       7012.7000        41.076000        9.3160800
       7012.9000        41.078900        13.923500
       7079.2200        51.007200        13.514200
       7193.7200        52.779800        12.844100
       7310.0700        53.431300        12.207000
       7427.8000        49.643700        11.604100
       7428.0000        49.643600        13.570400
       7428.3100        50.519500        13.569400
       7548.4500        54.551400        13.227200
       7670.5400        55.439400        12.893200
       7794.6100        56.096500        12.566900
       7920.6800        56.633700        12.247900
       8048.7900        57.090500        11.935900
       8178.9800        57.487400        11.631100
       8311.2600        57.836900        11.333300
       8445.6900        58.147300        11.042500
       8582.2900        58.424700        10.758500
       8721.1100        58.673800        10.481100
       8862.1600        58.898000        10.210300
       9005.5000        59.100000        9.9460100
       9151.1600        59.281800        9.6878500
       9299.1700        59.444900        9.4359800
       9449.5800        59.589300        9.1900300
       9602.4200        59.712900        8.9503400
       9757.7300        59.792700        8.7162300
       9915.5500        59.918700        8.5901800
       10075.900        60.118000        8.3648300
       10238.900        60.209600        8.1450600
       10404.500        60.307000        7.9307300
       10572.800        60.395100        7.7217200
       10743.800        60.474600        7.5179300
       10917.600        60.546100        7.3192500
       11094.200        60.610400        7.1255600
       11273.600        60.668200        6.9367500
       11455.900        60.719900        6.7527300
       11641.200        60.766100        6.5733700
       11829.500        60.807100        6.3985700
       12020.800        60.843400        6.2282300
       12215.300        60.875300        6.0622500
       12412.800        60.903100        5.9005300
       12613.600        60.927100        5.7429600
       12817.600        60.947600        5.5894600
       13025.000        60.964800        5.4399200
       13235.600        60.979000        5.2942500
       13449.700        60.990300        5.1523700
       13667.200        60.998900        5.0141600
       13888.300        61.005100        4.8795600
       14112.900        61.009000        4.7484700
       14341.200        61.010800        4.6208000
       14573.100        61.010500        4.4964700
       14808.900        61.008400        4.3754100
       15048.400        61.004600        4.2575200
       15291.800        60.999100        4.1427300
       15539.100        60.992100        4.0309600
       15790.400        60.983800        3.9221400
       16045.800        60.974100        3.8161900
       16305.400        60.963200        3.7130400
       16569.100        60.951200        3.6126200
       16837.100        60.938100        3.5148600
       17109.400        60.924000        3.4196900
       17386.100        60.909000        3.3270500
       17667.400        60.893200        3.2368600
       17953.100        60.876500        3.1490700
       18243.500        60.859200        3.0636200
       18538.600        60.841100        2.9804400
       18838.400        60.822400        2.8994700
       19143.100        60.803100        2.8206600
       19452.700        60.783200        2.7439500
       19767.400        60.762900        2.6692900
       20087.100        60.742000        2.5966200
       20412.000        60.720600        2.5258900
       20742.100        60.698900        2.4570400
       21077.600        60.676700        2.3900400
       21418.500        60.654100        2.3248200
       21765.000        60.631200        2.2613500
       22117.000        60.607900        2.1995700
       22474.700        60.584200        2.1394500
       22838.200        60.560200        2.0809300
       23207.600        60.535900        2.0239700
       23583.000        60.511300        1.9685400
       23964.400        60.486300        1.9145800
       24352.000        60.461100        1.8620700
       24745.900        60.435500        1.8109600
       25146.200        60.409500        1.7612200
       25552.900        60.383200        1.7128100
       25966.200        60.356600        1.6656800
       26386.100        60.329600        1.6198200
       26812.900        60.302200        1.5751800
       27246.600        60.274300        1.5317300
       27687.300        60.246000        1.4894300
       28135.100        60.217300        1.4482700
       28590.200        60.187900        1.4082000
       29052.600        60.158000        1.3691900
       29522.500        60.127500        1.3312300
       30000.000        60.096200        1.2942700
       30400.000        60.050900        1.2297200
       30800.000        60.024300        1.2011900
       31200.000        59.997100        1.1736800
       31500.000        59.976800        1.1536800
       31900.000        59.949000        1.1278300
       32300.000        59.921200        1.1028700
       32600.000        59.899800        1.0847100
       33000.000        59.871300        1.0612200
       33400.000        59.842200        1.0384700
       33800.000        59.812400        1.0164700
       34100.000        59.789700        1.0004400
       34500.000        59.758800       0.97967400
       34900.000        59.727100       0.95957100
       35300.000        59.694700       0.94002800
       35700.000        59.661200       0.92107200
       36030.000        59.632700       0.90587600
       36300.000        59.608800       0.89382400
       36500.000        59.590800       0.88489700
       37000.000        59.544100       0.86339600
       37300.000        59.514900       0.85097500
       37500.000        59.494900       0.84269500
       37800.000        59.464100       0.83073100
       38000.000        59.442900       0.82275500
       38300.000        59.410200       0.81122500
       38500.000        59.387600       0.80353900
       38800.000        59.352500       0.79242200
       39000.000        59.328300       0.78501000
       39300.000        59.290500       0.77428600
       39500.000        59.264200       0.76713700
       39800.000        59.223100       0.75678800
       40000.000        59.194500       0.74988800
       40200.000        59.164800       0.74326200
       40400.000        59.133800       0.73663500
       40600.000        59.101500       0.73000900
       40800.000        59.067700       0.72338300
       40950.000        59.041300       0.71866500
       41100.000        59.014000       0.71394600
       41300.000        58.975900       0.70765500
       41500.000        58.935800       0.70136400
       41700.000        58.893300       0.69538500
       41900.000        58.848200       0.68940600
       42100.000        58.800200       0.68342600
       42300.000        58.748900       0.67744700
       42450.000        58.707900       0.67318100
       42600.000        58.664500       0.66891600
       42700.000        58.634100       0.66607200
       42800.000        58.602400       0.66322800
       42900.000        58.569200       0.66038500
       43000.000        58.534600       0.65754100
       43070.000        58.509300       0.65562700
       43150.000        58.479300       0.65343900
       43220.000        58.452100       0.65152500
       43300.000        58.419700       0.64933700
       43380.000        58.385800       0.64714900
       43450.000        58.354900       0.64523500
       43530.000        58.317900       0.64304700
       43600.000        58.284000       0.64113300
       43680.000        58.243300       0.63902200
       43750.000        58.205800       0.63717500
       43830.000        58.160700       0.63506400
       43900.000        58.118800       0.63321700
       43950.000        58.087400       0.63189700
       44000.000        58.054700       0.63057800
       44050.000        58.020600       0.62925800
       44100.000        57.984900       0.62793900
       44180.000        57.924200       0.62590100
       44250.000        57.866900       0.62411800
       44290.000        57.832200       0.62309800
       44330.000        57.795900       0.62207900
       44360.000        57.767500       0.62131500
       44400.000        57.728100       0.62029600
       44440.000        57.686500       0.61927700
       44480.000        57.642700       0.61825800
       44510.000        57.608200       0.61749400
       44550.000        57.559800       0.61647500
       44590.000        57.508300       0.61545500
       44630.000        57.453300       0.61443600
       44660.000        57.409400       0.61367200
       44700.000        57.347100       0.61265300
       44740.000        57.279500       0.61167000
       44770.000        57.225000       0.61093200
       44790.000        57.186500       0.61044000
       44810.000        57.146100       0.60994900
       44830.000        57.103700       0.60945700
       44850.000        57.059000       0.60896500
       44865.000        57.023800       0.60859600
       44880.000        56.987100       0.60822800
       44900.000        56.935400       0.60773600
       44920.000        56.880400       0.60724400
       44940.000        56.821500       0.60675300
       44960.000        56.758200       0.60626100
       44980.000        56.689800       0.60576900
       45000.000        56.615300       0.60527700
       45015.000        56.554900       0.60490900
       45030.000        56.489800       0.60454000
       45045.000        56.419300       0.60417100
       45060.000        56.342600       0.60380200
       45070.000        56.287300       0.60355600
       45080.000        56.228300       0.60331100
       45087.000        56.184300       0.60313900
       45095.000        56.131300       0.60294200
       45103.000        56.074700       0.60274500
       45110.000        56.022000       0.60257300
       45118.000        55.957500       0.60237600
       45125.000        55.896800       0.60220400
       45133.000        55.822000       0.60200800
       45140.000        55.750700       0.60183500
       45148.000        55.661300       0.60163900
       45155.000        55.574800       0.60146700
       45159.000        55.521300       0.60136800
       45163.000        55.464200       0.60127000
       45167.000        55.403100       0.60117200
       45170.000        55.354500       0.60109800
       45174.000        55.284800       0.60100000
       45177.000        55.228900       0.60092600
       45181.000        55.148000       0.60082700
       45185.000        55.059100       0.60072900
       45189.000        54.960100       0.60063100
       45191.000        54.906100       0.60058200
       45193.000        54.848600       0.60053200
       45195.000        54.787000       0.60048300
       45197.000        54.720800       0.60043400
       45200.000        54.611000       0.60036000
       45201.500        54.550600       0.60032300
       45203.000        54.485500       0.60028700
       45204.500        54.415600       0.60025000
       45206.000        54.339300       0.60021300
       45207.500        54.255900       0.60017600
       45209.000        54.163600       0.60013900
       45210.500        54.060900       0.60010200
       45212.000        53.944300       0.60006500
       45213.500        53.810300       0.60002800
       45215.000        53.651500       0.59999200
       45215.800        53.554300       0.59997200
       45216.500        53.459000       0.59995500
       45217.300        53.336100       0.59993500
       45218.000        53.212500       0.59991800
       45218.800        53.047700       0.59989800
       45219.500        52.874000       0.59988100
       45220.200        52.659900       0.59986400
       45221.000        52.336900       0.59984400
       45221.500        52.064600       0.59983200
       45222.100        51.605400       0.59981700
       45222.600        51.003300       0.59980500
       45223.200        49.857600       0.59979000
       45223.200        49.843700       0.59979000
       45223.300        50.131300        1.6102400
       45223.400        50.403400        2.6207000
       45223.600        50.951100        4.6416000
       45224.100        52.277000        9.6938700
       45225.000        53.974500       0.59974600
       45225.000        53.942600       0.59974400
       45225.100        53.490800       0.59974200
       45225.600        53.196900       0.59973100
       45226.000        53.227100        5.6494400
       45226.500        53.427100       0.78888800
       45226.900        53.554800        1.1815600
       45227.500        52.681400        1.9807200
       45228.000        52.567400        3.1495500
       45228.500        52.741100        3.4463500
       45229.000        53.241000        3.4400400
       45229.800        53.461900        3.4301000
       45230.500        53.596000        3.4213400
       45231.300        53.716200        3.4119800
       45232.000        53.804100        3.4037900
       45232.700        53.880400        3.3959500
       45233.500        53.956700        3.3869900
       45234.200        54.016600        3.3810800
       45235.000        54.078500        3.3743200
       45235.800        54.135300        3.3687000
       45236.500        54.181100        3.3637900
       45237.300        54.228800        3.3600800
       45238.000        54.268200        3.3568300
       45238.800        54.310000        3.3548500
       45239.500        54.344600        3.3531100
       45241.000        54.414800        3.3522200
       45242.500        54.478000        3.3525900
       45244.000        54.537500        3.3554700
       45245.500        54.592700        3.3596400
       45247.000        54.645900        3.3638100
       45248.500        54.696400        3.3690500
       45250.000        54.745400        3.3742900
       45253.000        54.838300        3.3843500
       45255.000        54.897300        3.3910600
       45258.000        54.981800        3.3982500
       45260.000        55.035500        3.4014900
       45263.000        55.111200        3.4040700
       45265.000        55.159200        3.4044500
       45268.000        55.225800        3.4028800
       45270.000        55.267500        3.4018400
       45273.000        55.326200        3.3985800
       45275.000        55.362500        3.3964000
       45278.000        55.413800        3.3931500
       45280.000        55.445900        3.3909900
       45285.000        55.520000        3.3864400
       45290.000        55.586800        3.3838100
       45295.000        55.648600        3.3831300
       45300.000        55.706800        3.3838100
       45305.000        55.762200        3.3852200
       45310.000        55.815800        3.3866300
       45315.000        55.866800        3.3866300
       45320.000        55.914900        3.3866200
       45325.000        55.960700        3.3866200
       45330.000        56.004800        3.3866200
       45340.000        56.086700        3.3840400
       45350.000        56.159900        3.3814700
       45358.000        56.214000        3.3812700
       45365.000        56.259400        3.3811000
       45372.000        56.302900        3.3809300
       45380.000        56.350200        3.3807300
       45390.000        56.406400        3.3804900
       45400.000        56.459900        3.3802400
       45415.000        56.534700        3.3787300
       45430.000        56.603700        3.3772100
       45440.000        56.647000        3.3762000
       45450.000        56.688400        3.3751900
       45465.000        56.747200        3.3736800
       45480.000        56.802600        3.3721700
       45490.000        56.837900        3.3711600
       45500.000        56.872000        3.3701500
       45520.000        56.936700        3.3674400
       45535.000        56.982200        3.3654000
       45550.000        57.025500        3.3633700
       45565.000        57.066800        3.3613400
       45580.000        57.106200        3.3593000
       45600.000        57.155900        3.3565900
       45630.000        57.225900        3.3537900
       45650.000        57.270100        3.3519300
       45670.000        57.312500        3.3500600
       45700.000        57.372900        3.3472600
       45730.000        57.429800        3.3444700
       45750.000        57.466100        3.3426000
       45770.000        57.501200        3.3407400
       45800.000        57.551500        3.3379400
       45820.000        57.583600        3.3356100
       45850.000        57.630000        3.3321200
       45900.000        57.703300        3.3263100
       45950.000        57.771500        3.3204900
       45980.000        57.809800        3.3170000
       46000.000        57.834500        3.3146700
       46030.000        57.870200        3.3115600
       46070.000        57.915600        3.3074200
       46110.000        57.958200        3.3032800
       46150.000        57.999300        3.2991400
       46220.000        58.067800        3.2919000
       46300.000        58.140600        3.2836100
       46350.000        58.183600        3.2784400
       46400.000        58.225100        3.2732600
       46450.000        58.265000        3.2680900
       46500.000        58.303500        3.2629100
       46570.000        58.355500        3.2559000
       46650.000        58.412600        3.2478900
       46720.000        58.459700        3.2408800
       46800.000        58.511300        3.2328700
       46850.000        58.542300        3.2271900
       46900.000        58.572200        3.2215200
       46950.000        58.601300        3.2158400
       47000.000        58.629600        3.2101600
       47070.000        58.667800        3.2018000
       47150.000        58.709500        3.1922400
       47220.000        58.744400        3.1838700
       47300.000        58.782800        3.1743100
       47400.000        58.828500        3.1621700
       47500.000        58.871600        3.1500300
       47650.000        58.931500        3.1337100
       47800.000        58.988200        3.1174000
       47900.000        59.024300        3.1065200
       48000.000        59.058800        3.0956400
       48150.000        59.108400        3.0810000
       48300.000        59.155500        3.0663500
       48400.000        59.185700        3.0565900
       48500.000        59.214900        3.0468300
       48650.000        59.257400        3.0332800
       48800.000        59.298400        3.0197300
       48900.000        59.325000        3.0107000
       49000.000        59.351200        3.0016700
       49150.000        59.389100        2.9875900
       49300.000        59.425500        2.9735000
       49400.000        59.449000        2.9641100
       49500.000        59.472200        2.9547200
       49650.000        59.505800        2.9406400
       49800.000        59.537900        2.9265500
       49900.000        59.558800        2.9171600
       50000.000        59.579200        2.9077700
       50150.000        59.609000        2.8936000
       50300.000        59.637500        2.8794300
       50400.000        59.655900        2.8699800
       50500.000        59.673900        2.8605400
       50650.000        59.700100        2.8463600
       50800.000        59.725400        2.8321900
       50900.000        59.741900        2.8227500
       51000.000        59.757900        2.8133000
       51300.000        59.804300        2.7863000
       51500.000        59.833700        2.7683000
       51800.000        59.875700        2.7413000
       52000.000        59.902300        2.7233000
       52300.000        59.940300        2.6972300
       52500.000        59.964400        2.6798500
       52800.000        59.999000        2.6544300
       53000.000        60.020900        2.6374800
       53300.000        60.052400        2.6132000
       53500.000        60.072600        2.5970200
       53800.000        60.101800        2.5733300
       54000.000        60.120400        2.5575400
       54300.000        60.147300        2.5349000
       54500.000        60.164700        2.5198000
       54800.000        60.190000        2.4977000
       55000.000        60.206300        2.4829600
       55300.000        60.230000        2.4615200
       55500.000        60.245200        2.4472200
       55800.000        60.267300        2.4257800
       56000.000        60.281600        2.4114900
       56200.000        60.295500        2.3977900
       56400.000        60.309000        2.3840800
       56600.000        60.322200        2.3703800
       56800.000        60.335100        2.3566800
       57000.000        60.347700        2.3434600
       57200.000        60.359900        2.3302300
       57400.000        60.371900        2.3170100
       57530.000        60.379500        2.3084100
       57660.000        60.387000        2.3000400
       57800.000        60.395000        2.2910300
       58000.000        60.406200        2.2781600
       58300.000        60.422500        2.2591500
       58500.000        60.433000        2.2464800
       58800.000        60.448300        2.2281100
       59000.000        60.458200        2.2158600
       59300.000        60.472700        2.1975000
       59540.000        60.484000        2.1828000
       59670.000        60.490000        2.1750700
       59800.000        60.495900        2.1673400
       59900.000        60.500400        2.1614500
       59950.000        60.502700        2.1585000
       60000.000        60.504900        2.1555600
       60200.000        60.513800        2.1438200
       60400.000        60.522300        2.1320800
       60600.000        60.530600        2.1203400
       60800.000        60.538700        2.1086000
       61100.000        60.550600        2.0915600
       61500.000        60.565700        2.0688400
       61900.000        60.580300        2.0467400
       62300.000        60.594300        2.0246500
       62600.000        60.604400        2.0084800
       63000.000        60.617200        1.9869200
       63500.000        60.632400        1.9609300
       64000.000        60.646800        1.9349400
       64500.000        60.660500        1.9100200
       65000.000        60.673500        1.8850900
       65500.000        60.685900        1.8608600
       65900.000        60.695300        1.8414700
       66400.000        60.706400        1.8181300
       66830.000        60.715500        1.7980600
       67100.000        60.721000        1.7858300
       67400.000        60.727000        1.7722500
       67700.000        60.732800        1.7589800
       68000.000        60.738500        1.7457100
       68500.000        60.747500        1.7239800
       69000.000        60.755900        1.7022400
       69500.000        60.763800        1.6813500
       70000.000        60.771200        1.6604600
       70500.000        60.778200        1.6404500
       71000.000        60.784900        1.6204300
       71500.000        60.791200        1.6011600
       72000.000        60.797200        1.5819000
       72800.000        60.806100        1.5524900
       73500.000        60.813200        1.5267600
       74200.000        60.819900        1.5024000
       74960.000        60.826400        1.4759600
       75500.000        60.830800        1.4579300
       76000.000        60.834600        1.4415500
       77110.000        60.842500        1.4062200
       78600.000        60.851700        1.3609000
       79300.000        60.855600        1.3404100
       79700.000        60.857700        1.3289800
       80000.000        60.859300        1.3204000
       80800.000        60.863200        1.2979700
       81500.000        60.866200        1.2783500
       82300.000        60.869300        1.2570300
       83000.000        60.871700        1.2383800
       84000.000        60.874700        1.2128200
       85000.000        60.877400        1.1880700
       86500.000        60.880600        1.1520500
       88000.000        60.882800        1.1177100
       89000.000        60.883900        1.0956900
       90000.000        60.884700        1.0743600
       91500.000        60.885500        1.0435800
       93000.000        60.885500        1.0141700
       94000.000        60.885300       0.99528200
       95000.000        60.885100       0.97693600
       96500.000        60.884200       0.95037400
       98000.000        60.883300       0.92492800
       99000.000        60.882500       0.90849100
       99500.000        60.882100       0.90044400
       100000.00        60.881700       0.89250700
