;  Atomic scattering factors for Pt.
;   
;  Concatenation of data from CXRO <http://www-cxro.lbl.gov>
;  and LLNL <http://www-phys.llnl.gov/V_Div/scattering/asf.html>
;  
;  E (eV) f1 f2
;---------------
       10.000000       -9999.0000        2.2414000
       10.161700       -9999.0000        2.2810400
       10.326100       -9999.0000        2.3213800
       10.493100       -9999.0000        2.3624400
       10.662800       -9999.0000        2.4095500
       10.835300       -9999.0000        2.4586300
       11.010600       -9999.0000        2.5087100
       11.188600       -9999.0000        2.5598100
       11.369600       -9999.0000        2.6119500
       11.553500       -9999.0000        2.6651500
       11.740400       -9999.0000        2.7369000
       11.930300       -9999.0000        2.8112500
       12.123200       -9999.0000        2.8876100
       12.319300       -9999.0000        2.9660400
       12.518600       -9999.0000        3.0466100
       12.721000       -9999.0000        3.1293600
       12.926800       -9999.0000        3.2143600
       13.135900       -9999.0000        3.3016700
       13.348300       -9999.0000        3.4024900
       13.564200       -9999.0000        3.5094300
       13.783600       -9999.0000        3.6197200
       14.006600       -9999.0000        3.7334900
       14.233100       -9999.0000        3.8508300
       14.463300       -9999.0000        3.9713200
       14.697300       -9999.0000        4.0941000
       14.935000       -9999.0000        4.2206800
       15.176500       -9999.0000        4.3511800
       15.422000       -9999.0000        4.4857000
       15.671400       -9999.0000        4.6243900
       15.924900       -9999.0000        4.7673700
       16.182500       -9999.0000        4.9238200
       16.444200       -9999.0000        5.1149300
       16.710200       -9999.0000        5.3134600
       16.980500       -9999.0000        5.5197100
       17.255100       -9999.0000        5.7339500
       17.534200       -9999.0000        5.9565100
       17.817800       -9999.0000        6.1877100
       18.106000       -9999.0000        6.4286900
       18.398900       -9999.0000        6.6795900
       18.696400       -9999.0000        6.9402900
       18.998800       -9999.0000        7.2111600
       19.306100       -9999.0000        7.4926100
       19.618400       -9999.0000        7.7850400
       19.935700       -9999.0000        8.1086500
       20.258200       -9999.0000        8.4480300
       20.585800       -9999.0000        8.8016000
       20.918800       -9999.0000        9.1699700
       21.257100       -9999.0000        9.5537500
       21.600900       -9999.0000        9.8261700
       21.950300       -9999.0000        10.001800
       22.305300       -9999.0000        10.180500
       22.666100       -9999.0000        10.325400
       23.032700       -9999.0000        10.268600
       23.405300       -9999.0000        10.212200
       23.783800       -9999.0000        10.156100
       24.168500       -9999.0000        10.090800
       24.559400       -9999.0000        10.017900
       24.956600       -9999.0000        9.9454700
       25.360300       -9999.0000        9.8736000
       25.770500       -9999.0000        9.8022500
       26.187300       -9999.0000        9.7555000
       26.610900       -9999.0000        9.7790600
       27.041300       -9999.0000        9.8026700
       27.478600       -9999.0000        9.8263400
       27.923100       -9999.0000        9.8500700
       28.374700       -9999.0000        9.8738600
       28.833700       -9999.0000        9.9000200
       29.300000        4.7501800        10.003000
       29.773900        4.9191700        10.107000
       30.255500        5.1238300        10.212200
       30.744900        5.3675700        10.318400
       31.242100        5.6719500        10.425700
       31.747500        6.1073400        10.488500
       32.260900        6.5068200        10.299300
       32.782700        6.8227400        10.113500
       33.313000        7.1451700        9.8599900
       33.851800        7.3360600        9.5473800
       34.399300        7.4460100        9.2446800
       34.955700        7.4846800        8.9515800
       35.521100        7.4647600        8.7303300
       36.095600        7.4538800        8.5338200
       36.679400        7.4303400        8.3417100
       37.272700        7.3829000        8.1539400
       37.875500        7.3063400        7.9758200
       38.488200        7.2043300        7.8050700
       39.110700        7.0649400        7.6379800
       39.743200        6.8500100        7.4744600
       40.386100        6.5418600        7.4560500
       41.039300        6.3314400        7.5111700
       41.703100        6.1571300        7.5667100
       42.377600        5.9858000        7.6226600
       43.063000        5.7996900        7.6790100
       43.759500        5.5618700        7.7740800
       44.467300        5.3591300        7.9408500
       45.186500        5.1751400        8.1111800
       45.917400        4.9860400        8.2851600
       46.660000        4.7449400        8.4628800
       47.414700        4.4102200        8.7959100
       48.181600        4.2124300        9.2424700
       48.960900        4.0975000        9.7117100
       49.752800        4.0422500        10.204800
       50.557600        4.0566600        10.709100
       51.375300        4.1103600        11.219200
       52.206200        4.2162700        11.753500
       53.050600        4.4024000        12.313400
       53.908700        4.7265700        12.890800
       54.780600        5.0967900        13.293700
       55.666700        5.4644600        13.709300
       56.567000        5.9208200        14.137800
       57.482000        6.5275500        14.386600
       58.411700        7.0157300        14.516900
       59.356400        7.4986000        14.648300
       60.316500        7.9672300        14.567900
       61.292100        8.2279700        14.427400
       62.283400        8.2922400        14.410800
       63.290800        8.4044300        14.510100
       64.314500        8.4796100        14.610000
       65.354700        8.3954500        14.710700
       66.411800        8.3065800        15.245800
       67.485900        8.3963100        15.840700
       68.577500        8.5811100        16.626800
       69.686700        9.0959400        17.553200
       70.813800        10.065900        18.531100
       71.959100        11.250400        18.855500
       73.123000        12.424800        19.155700
       74.305700        13.894100        19.131300
       75.507600        15.122000        18.734100
       76.728900        16.061600        18.115600
       77.969900        16.817500        17.513200
       79.231000        17.457100        16.926400
       80.512500        18.056300        16.352100
       81.814700        18.554900        15.660100
       83.138000        18.925000        14.997400
       84.482700        19.170900        14.387800
       85.849100        19.425500        13.886300
       87.237700        19.746000        13.402300
       88.648700        20.124600        12.725400
       90.082500        20.264200        11.947600
       91.539500        20.245100        11.217300
       93.020100        20.032700        10.621500
       94.524600        19.888000        10.177400
       96.053500        19.771000        9.7519300
       97.607100        19.637100        9.3442200
       99.185800        19.463400        8.9535700
       100.79000        19.282800        8.6494600
       102.42000        19.124700        8.3619500
       104.07700        18.969100        8.0840000
       105.76000        18.808100        7.8152900
       107.47100        18.634200        7.5603600
       109.20900        18.457800        7.3210900
       110.97500        18.273500        7.0893900
       112.77000        18.075700        6.8650200
       114.59400        17.862300        6.6547200
       116.44800        17.637000        6.4544400
       118.33100        17.388900        6.2605300
       120.24500        17.122600        6.0921700
       122.19000        16.830400        5.9283300
       124.16600        16.454800        5.7745800
       126.17500        16.097600        5.7875400
       128.21500        15.797700        5.8005400
       130.28900        15.512400        5.8135600
       132.39700        15.206800        5.8396000
       134.53800        14.924300        5.9086400
       136.71400        14.660600        5.9784900
       138.92500        14.397400        6.0491700
       141.17200        14.117300        6.1206800
       143.45600        13.803100        6.2373200
       145.77600        13.525400        6.4008800
       148.13400        13.263300        6.5687300
       150.53000        12.993200        6.7409900
       152.96400        12.716700        6.9598400
       155.43900        12.469900        7.2061400
       157.95300        12.238800        7.4611700
       160.50700        12.012500        7.7252100
       163.10300        11.768300        8.0164600
       165.74200        11.559200        8.3605300
       168.42200        11.380600        8.7193800
       171.14600        11.228600        9.0936200
       173.91500        11.111600        9.4804300
       176.72700        11.009700        9.8550100
       179.58600        10.920300        10.244400
       182.49100        10.849100        10.649200
       185.44200        10.804900        11.069900
       188.44200        10.819100        11.507300
       191.48900        10.858200        11.872200
       194.58700        10.869800        12.227800
       197.73400        10.873100        12.594000
       200.93200        10.874200        12.971200
       204.18200        10.868600        13.359700
       207.48500        10.858700        13.795900
       210.84000        10.885400        14.265400
       214.25100        10.949200        14.751000
       217.71600        11.049500        15.253100
       221.23700        11.224600        15.750900
       224.81600        11.402200        16.211700
       228.45200        11.588200        16.686000
       232.14700        11.808200        17.174200
       235.90200        12.086300        17.676700
       239.71700        12.493700        18.121100
       243.59500        12.835500        18.434900
       247.53500        13.142500        18.754200
       251.53800        13.445200        19.078900
       255.60700        13.767900        19.409400
       259.74100        14.120400        19.683900
       263.94200        14.435100        19.923000
       268.21100        14.718900        20.165000
       272.54900        14.990600        20.409900
       276.95700        15.251500        20.657700
       281.43700        15.496300        20.916400
       285.98900        15.749500        21.195100
       290.61500        16.009600        21.477600
       295.31500        16.274300        21.763800
       300.09200        16.543400        22.053800
       304.94500        16.814000        22.350700
       309.87800        17.094900        22.656700
       314.89000        17.386600        22.966400
       319.98300        17.687900        23.279800
       325.15800        17.998500        23.597000
       330.41800        18.320100        23.919600
       335.76200        18.654700        24.246600
       341.19200        19.002900        24.577700
       346.71100        19.366100        24.913500
       352.31900        19.746900        25.253900
       358.01700        20.147200        25.598600
       363.80800        20.570500        25.948000
       369.69200        21.021100        26.302400
       375.67200        21.506800        26.661900
       381.74800        22.042700        27.026700
       387.92200        22.664200        27.370500
       394.19700        23.375200        27.659600
       400.57300        24.107000        27.757300
       407.05200        24.728600        27.778100
       413.63500        25.290700        27.799300
       420.32600        25.820000        27.820100
       427.12400        26.326800        27.841000
       434.03200        26.818200        27.862400
       441.05200        27.299100        27.884000
       448.18600        27.788300        27.900800
       455.43500        28.264000        27.892900
       462.80200        28.721000        27.866300
       470.28700        29.150000        27.830000
       477.89400        29.553800        27.795200
       485.62300        29.935800        27.759300
       493.47800        30.292000        27.723300
       501.45900        30.616900        27.688200
       509.57000        30.894300        27.653000
       517.81200        31.054000        27.656500
       526.18700        31.149800        27.798500
       534.69800        31.284700        28.205800
       543.34600        31.676200        28.753500
       552.13400        32.353600        29.310300
       561.06500        33.234400        29.537200
       570.13900        34.086500        29.585700
       579.36100        34.806000        29.509700
       588.73200        35.465200        29.412400
       598.25400        36.072900        29.301700
       607.93000        36.651900        29.190800
       617.76300        37.217600        29.081300
       627.75500        37.794400        28.969300
       637.90800        38.379000        28.812900
       648.22600        38.946900        28.592700
       658.71100        39.439100        28.331800
       669.36500        39.865100        28.073300
       680.19100        40.234200        27.855400
       691.19300        40.581100        27.671300
       702.37200        40.901900        27.516500
       713.73300        41.211800        27.439100
       725.27700        41.585000        27.415000
       737.00800        42.006500        27.390900
       748.92800        42.469600        27.366800
       761.04200        42.990100        27.338900
       773.35100        43.598400        27.269900
       785.85900        44.254200        27.058400
       798.57000        44.803600        26.731600
       811.48600        45.281400        26.408800
       824.61100        45.720000        26.089500
       837.94900        46.132100        25.773900
       851.50200        46.523400        25.457100
       865.27400        46.896200        25.138500
       879.26900        47.247500        24.818900
       893.49100        47.581700        24.503200
       907.94300        47.903500        24.191300
       922.62800        48.220400        23.883100
       937.55100        48.524600        23.559000
       952.71500        48.812400        23.234100
       968.12400        49.082000        22.909100
       983.78300        49.338600        22.588200
       999.69500        49.586600        22.268800
       1015.8600        49.831400        21.950900
       1032.2900        50.059600        21.611900
       1048.9900        50.268100        21.273900
       1065.9600        50.455500        20.937000
       1083.2000        50.626100        20.605200
       1100.7200        50.782300        20.278300
       1118.5200        50.924900        19.956100
       1136.6100        51.054600        19.638600
       1155.0000        51.172200        19.325900
       1173.6800        51.278500        19.018000
       1192.6600        51.373800        18.714300
       1211.9500        51.458800        18.415200
       1231.5500        51.534900        18.120300
       1251.4700        51.602100        17.825500
       1271.7200        51.659000        17.530100
       1292.2900        51.699100        17.233000
       1313.1900        51.723000        16.940200
       1334.4300        51.732400        16.652300
       1356.0100        51.727900        16.369100
       1377.9400        51.709600        16.090300
       1400.2300        51.677300        15.815800
       1422.8800        51.630500        15.545400
       1445.8900        51.569000        15.279300
       1469.2800        51.493300        15.016700
       1493.0400        51.402800        14.756800
       1517.1900        51.292500        14.494200
       1541.7300        51.159700        14.235300
       1566.6700        51.003900        13.980900
       1592.0100        50.824300        13.730600
       1617.7600        50.619200        13.484400
       1643.9200        50.386100        13.242100
       1670.5100        50.122100        13.004100
       1697.5300        49.823900        12.770200
       1724.9900        49.491400        12.540400
       1752.8900        49.113400        12.305800
       1781.2400        48.678900        12.072400
       1810.0500        48.178100        11.840700
       1839.3200        47.598800        11.613700
       1869.0700        46.925600        11.391000
       1899.3000        46.135500        11.172400
       1930.0200        45.193700        10.957600
       1961.2400        44.047000        10.746900
       1992.9600        42.606500        10.540700
       2025.2000        40.719300        10.343500
       2057.9500        38.017200        10.138500
       2091.2400        33.325400        9.9358400
       2121.5000       0.53721400        9.7578600
       2121.7000       0.53574900        27.428400
       2125.0600        20.395500        27.369600
       2159.4300        32.155400        26.780400
       2194.3600        29.565600        26.204600
       2201.8000        13.123200        26.084800
       2202.0000        13.143900        38.545400
       2229.8500        37.607500        37.853400
       2265.9200        42.868600        36.988100
       2302.5700        46.172400        36.143100
       2339.8100        48.615500        35.317200
       2377.6600        50.536900        34.511600
       2416.1100        52.089000        33.724200
       2455.1900        53.349400        32.955800
       2494.9000        54.352700        32.205000
       2535.2600        55.092800        31.472000
       2576.2600        55.489200        30.757000
       2617.9300        55.121400        30.058300
       2645.3000        47.432000        29.613900
       2645.5000        47.437600        34.268400
       2660.2700        55.184000        33.988500
       2703.3000        58.021500        33.194900
       2747.0300        59.560500        32.420700
       2791.4600        60.707100        31.665800
       2836.6100        61.625500        30.929700
       2882.4900        62.368800        30.211000
       2929.1100        62.943300        29.510700
       2976.4800        63.282500        28.827500
       3024.6300        62.116900        28.159900
       3026.4000        60.530900        28.135800
       3026.6000        60.533600        29.858500
       3073.5500        64.457400        29.210700
       3123.2600        65.342400        28.550300
       3173.7800        65.981000        27.906200
       3225.1100        66.441100        27.277000
       3277.2700        66.548900        26.664100
       3295.9000        64.861400        26.451000
       3296.1000        64.863600        27.580000
       3330.2800        67.305300        27.188000
       3384.1500        68.132900        26.589400
       3438.8800        68.754500        26.001100
       3494.5000        69.285600        25.423700
       3551.0200        69.756100        24.855200
       3608.4600        70.180500        24.298500
       3666.8200        70.567900        23.751900
       3726.1300        70.923500        23.215600
       3786.4000        71.249700        22.687800
       3847.6400        71.549900        22.171800
       3909.8700        71.827500        21.665500
       3973.1100        72.084500        21.169500
       4037.3800        72.321800        20.681800
       4102.6800        72.540100        20.204300
       4169.0300        72.742400        19.737200
       4236.4600        72.929000        19.278300
       4304.9800        73.100600        18.829800
       4374.6200        73.258900        18.390100
       4445.3700        73.404000        17.959400
       4517.2700        73.537000        17.537500
       4590.3300        73.658500        17.124700
       4664.5800        73.769300        16.720400
       4740.0300        73.869800        16.324700
       4816.6900        73.960500        15.937600
       4894.6000        74.042300        15.558700
       4973.7700        74.115400        15.187900
       5054.2100        74.180000        14.825200
       5135.9600        74.236900        14.470400
       5219.0300        74.286300        14.123600
       5303.4400        74.328800        13.784300
       5389.2200        74.364400        13.452500
       5476.3900        74.393700        13.128200
       5564.9700        74.416800        12.811000
       5654.9800        74.434100        12.501100
       5746.4400        74.445600        12.198100
       5839.3900        74.451900        11.902200
       5933.8300        74.453100        11.612900
       6029.8100        74.449300        11.330200
       6127.3300        74.440700        11.054200
       6226.4400        74.427500        10.784300
       6327.1500        74.410000        10.520900
       6429.4800        74.388100        10.263400
       6533.4800        74.362000        10.012100
       6639.1500        74.331900        9.7664100
       6746.5400        74.297600        9.5266800
       6855.6500        74.259500        9.2926400
       6966.5400        74.217500        9.0640400
       7079.2200        74.171800        8.8408400
       7193.7200        74.122100        8.6227900
       7310.0700        74.068600        8.4101000
       7428.3100        74.011300        8.2022100
       7548.4500        73.949900        7.9996100
       7670.5400        73.884600        7.8015000
       7794.6100        73.815200        7.6084100
       7920.6800        73.741500        7.4196500
       8048.7900        73.663300        7.2356000
       8178.9800        73.580600        7.0559900
       8311.2600        73.492900        6.8805400
       8445.6900        73.399800        6.7094000
       8582.2900        73.301000        6.5423800
       8721.1100        73.196300        6.3795400
       8862.1600        73.084900        6.2202400
       9005.5000        72.965800        6.0651700
       9151.1600        72.838800        5.9136600
       9299.1700        72.702300        5.7658500
       9449.5800        72.555400        5.6215700
       9602.4200        72.396500        5.4807100
       9757.7300        72.223500        5.3433900
       9915.5500        72.038900        5.2092600
       10075.900        71.833200        5.0662200
       10238.900        71.590300        4.9268000
       10404.500        71.311200        4.7909300
       10572.800        70.984100        4.6585100
       10743.800        70.591000        4.5294800
       10917.600        70.100000        4.4037400
       11094.200        69.447300        4.2812300
       11273.600        68.470700        4.1618600
       11455.900        66.477700        4.0455600
       11563.600        52.235900        3.9792600
       11563.800        52.236900        10.440000
       11641.200        65.914200        10.316600
       11829.500        68.450500        10.025600
       12020.800        69.495900        9.7429200
       12215.300        70.096600        9.4681800
       12412.800        70.450400        9.2011900
       12613.600        70.615100        8.9417200
       12817.600        70.582100        8.6895800
       13025.000        70.235200        8.4445500
       13235.600        68.507700        8.2064300
       13272.500        62.493000        8.1658500
       13272.700        62.493300        11.378200
       13449.700        70.255200        11.146800
       13667.200        71.070400        10.872900
       13879.800        68.806700        10.615800
       13880.000        68.808300        11.929500
       13888.300        70.441200        11.919900
       14112.900        72.265500        11.663700
       14341.200        72.974200        11.410200
       14573.100        73.506800        11.159500
       14808.900        73.945100        10.911800
       15048.400        74.320500        10.667200
       15291.800        74.648900        10.425900
       15539.100        74.940500        10.188000
       15790.400        75.201700        9.9534300
       16045.800        75.437400        9.7224400
       16305.400        75.651100        9.4950300
       16569.100        75.845600        9.2712800
       16837.100        76.023000        9.0512200
       17109.400        76.185300        8.8349100
       17386.100        76.333800        8.6223600
       17667.400        76.469900        8.4136100
       17953.100        76.594600        8.2086600
       18243.500        76.709000        8.0075300
       18538.600        76.813900        7.8102200
       18838.400        76.909900        7.6167200
       19143.100        76.997800        7.4270300
       19452.700        77.078100        7.2411300
       19767.400        77.151400        7.0590100
       20087.100        77.218200        6.8806400
       20412.000        77.279000        6.7059900
       20742.100        77.334000        6.5350400
       21077.600        77.383700        6.3677400
       21418.500        77.428500        6.2040800
       21765.000        77.468600        6.0440100
       22117.000        77.504300        5.8874800
       22474.700        77.536000        5.7344700
       22838.200        77.563900        5.5849000
       23207.600        77.588100        5.4387600
       23583.000        77.609000        5.2959700
       23964.400        77.626800        5.1565100
       24352.000        77.641600        5.0203100
       24745.900        77.653600        4.8873300
       25146.200        77.663000        4.7575100
       25552.900        77.669900        4.6308000
       25966.200        77.674600        4.5071600
       26386.100        77.677100        4.3865100
       26812.900        77.677600        4.2688100
       27246.600        77.676200        4.1540100
       27687.300        77.673100        4.0420600
       28135.100        77.668400        3.9328800
       28590.200        77.662200        3.8264500
       29052.600        77.655200        3.7226900
       29522.500        77.656500        3.6215600
       30000.000        77.604500        3.5230000
       30400.000        77.480100        3.4016000
       30800.000        77.470400        3.3269400
       31200.000        77.460100        3.2548500
       31500.000        77.452000        3.2024000
       31900.000        77.441000        3.1345300
       32300.000        77.429900        3.0689100
       32600.000        77.420800        3.0211200
       33000.000        77.409000        2.9592200
       33400.000        77.396700        2.8990600
       33800.000        77.384500        2.8408100
       34100.000        77.375000        2.7983400
       34500.000        77.362400        2.7432600
       34900.000        77.349600        2.6898800
       35300.000        77.336700        2.6378300
       35700.000        77.323500        2.5872600
       36030.000        77.312600        2.5466900
       36500.000        77.296700        2.4906100
       37000.000        77.279800        2.4330800
       37500.000        77.262700        2.3776100
       38000.000        77.245600        2.3241200
       38500.000        77.228400        2.2723200
       39000.000        77.211100        2.2223200
       39500.000        77.193800        2.1740300
       40000.000        77.176500        2.1273800
       40800.000        77.148600        2.0555900
       41500.000        77.124200        1.9958500
       42300.000        77.096200        1.9308700
       43000.000        77.071700        1.8767000
       43800.000        77.043800        1.8176800
       44500.000        77.019400        1.7684000
       45300.000        76.991500        1.7145100
       46000.000        76.967100        1.6693000
       46130.000        76.962600        1.6611100
       46259.800        76.958000        1.6530000
       47100.000        76.928700        1.6019600
       48000.000        76.897200        1.5499900
       49000.000        76.862200        1.4952900
       49500.000        76.844700        1.4690700
       50000.000        76.827200        1.4435600
       51000.000        76.792000        1.3943300
       52000.000        76.756500        1.3476800
       53000.000        76.720600        1.3034400
       54000.000        76.684400        1.2614400
       55000.000        76.647700        1.2215200
       56000.000        76.610400        1.1832900
       56800.000        76.580000        1.1540300
       57530.000        76.551700        1.1283100
       58000.000        76.533200        1.1122300
       58500.000        76.513300        1.0955000
       59540.000        76.471000        1.0619600
       59800.000        76.460200        1.0538200
       60000.000        76.451800        1.0476300
       60800.000        76.417700        1.0233500
       61500.000        76.387000        1.0028300
       62300.000        76.350900       0.98014600
       63000.000        76.318100       0.96095100
       63500.000        76.294000       0.94774200
       64000.000        76.269300       0.93453400
       64500.000        76.243900       0.92188500
       65000.000        76.217700       0.90923700
       65500.000        76.190800       0.89706500
       65900.000        76.168500       0.88732800
       66400.000        76.139900       0.87561700
       66830.000        76.114400       0.86554500
       67100.000        76.097900       0.85941500
       67400.000        76.079200       0.85260400
       67700.000        76.060100       0.84595500
       68000.000        76.040400       0.83930600
       68500.000        76.006500       0.82857900
       69000.000        75.970900       0.81785200
       69500.000        75.933600       0.80754800
       70000.000        75.894100       0.79724400
       70500.000        75.852400       0.78731600
       71000.000        75.808000       0.77738800
       71300.000        75.779900       0.77166000
       71500.000        75.760500       0.76784200
       71800.000        75.730400       0.76211400
       72000.000        75.709600       0.75829500
       72400.000        75.665900       0.75091800
       72800.000        75.619200       0.74354200
       73200.000        75.569200       0.73637400
       73500.000        75.529000       0.73099800
       73700.000        75.500900       0.72750800
       73900.000        75.471500       0.72401700
       74050.000        75.448600       0.72140000
       74200.000        75.424900       0.71878200
       74400.000        75.392000       0.71538500
       74600.000        75.357500       0.71198900
       74800.000        75.321100       0.70859200
       74960.000        75.290500       0.70587500
       75080.000        75.266600       0.70388600
       75200.000        75.241800       0.70189700
       75350.000        75.209600       0.69941000
       75500.000        75.175800       0.69692400
       75650.000        75.140300       0.69448500
       75800.000        75.102800       0.69204500
       75900.000        75.076600       0.69041900
       76000.000        75.049500       0.68879300
       76150.000        75.006600       0.68642400
       76300.000        74.961000       0.68405500
       76450.000        74.912200       0.68168600
       76600.000        74.859700       0.67931700
       76750.000        74.803100       0.67694800
       76900.000        74.741600       0.67457900
       77010.000        74.692900       0.67284100
       77110.000        74.645500       0.67126200
       77210.000        74.594800       0.66973600
       77300.000        74.546000       0.66836200
       77400.000        74.487500       0.66683600
       77500.000        74.424000       0.66531000
       77550.000        74.390100       0.66454700
       77600.000        74.354500       0.66378400
       77650.000        74.317100       0.66302100
       77700.000        74.277800       0.66225800
       77750.000        74.236200       0.66149500
       77800.000        74.192200       0.66073200
       77850.000        74.145400       0.65996900
       77900.000        74.095500       0.65920600
       77950.000        74.042100       0.65846400
       78000.000        73.984500       0.65772100
       78050.000        73.922300       0.65697900
       78100.000        73.854400       0.65623700
       78130.000        73.810600       0.65579100
       78150.000        73.780000       0.65549400
       78170.000        73.748000       0.65519700
       78200.000        73.697500       0.65475200
       78220.000        73.661800       0.65445500
       78250.000        73.605000       0.65400900
       78280.000        73.543700       0.65356400
       78300.000        73.499900       0.65326700
       78330.000        73.429300       0.65282200
       78350.000        73.378300       0.65252500
       78380.000        73.295000       0.65207900
       78400.000        73.234100       0.65178200
       78410.000        73.201800       0.65163400
       78420.000        73.168100       0.65148500
       78435.000        73.114600       0.65126300
       78450.000        73.057200       0.65104000
       78460.000        73.016400       0.65089100
       78470.000        72.973500       0.65074300
       78485.000        72.904300       0.65052000
       78500.000        72.828500       0.65029800
       78508.000        72.784900       0.65017900
       78515.000        72.744600       0.65007500
       78523.000        72.696000       0.64995600
       78530.000        72.650900       0.64985200
       78540.000        72.581600       0.64970400
       78550.000        72.505600       0.64955500
       78560.000        72.421700       0.64940700
       78565.000        72.376200       0.64933200
       78570.000        72.327900       0.64925800
       78575.000        72.276500       0.64918400
       78580.000        72.221700       0.64911000
       78585.000        72.162700       0.64903600
       78590.000        72.099300       0.64896100
       78595.000        72.030200       0.64888700
       78600.000        71.954700       0.64881300
       78605.000        71.871600       0.64873900
       78610.000        71.778900       0.64866400
       78615.000        71.674200       0.64859000
       78618.000        71.604500       0.64854600
       78620.000        71.554400       0.64851600
       78623.000        71.473200       0.64847100
       78625.000        71.414100       0.64844200
       78627.000        71.350400       0.64841200
       78630.000        71.245200       0.64836700
       78632.000        71.166500       0.64833800
       78634.000        71.080000       0.64830800
       78637.000        70.930800       0.64826300
       78639.000        70.814400       0.64823400
       78641.000        70.678900       0.64820400
       78642.000        70.602400       0.64818900
       78643.000        70.517200       0.64817400
       78644.000        70.422500       0.64816000
       78645.000        70.312700       0.64814500
       78646.100        70.167000       0.64812800
       78647.200        69.960300       0.64811200
       78647.300        69.959400       0.68484800
       78647.400        69.958500       0.72158300
       78647.600        69.956100       0.79505400
       78648.000        69.949400       0.94199600
       78648.800        69.927300        1.2358800
       78650.300        69.829400       0.64806600
       78651.900        69.358700       0.64804300
       78653.400        68.791000       0.64802100
       78654.900        67.853900       0.64799900
       78656.400        65.487200       0.64797700
       78657.200        66.703800       0.87723200
       78658.000        68.025200        12.706400
       78658.500        68.983400        1.7024000
       78659.100        70.369100        2.2521700
       78659.300        70.960600        2.5846500
       78659.600        71.792900        2.9662200
       78660.600        71.165800        4.9103600
       78662.200        71.667100        3.4050000
       78663.600        71.425600        3.3728200
       78665.000        71.373000        3.3406300
       78666.000        71.370900        3.3192600
       78667.000        71.382400        3.2979100
       78668.000        71.399100        3.2821100
       78669.000        71.421300        3.2661500
       78670.000        71.444100        3.2505100
       78671.000        71.468300        3.2347200
       78672.500        71.503300        3.2179400
       78674.000        71.538700        3.2011600
       78675.000        71.560500        3.1918800
       78676.000        71.582300        3.1826000
       78678.000        71.623900        3.1677300
       78680.000        71.662300        3.1554300
       78683.000        71.715500        3.1427600
       78685.000        71.749100        3.1370400
       78688.000        71.796000        3.1320200
       78690.000        71.826000        3.1298600
       78693.000        71.869400        3.1307200
       78695.000        71.897400        3.1313000
       78700.000        71.964800        3.1375200
       78704.000        72.017200        3.1445000
       78708.000        72.068200        3.1518500
       78715.000        72.155300        3.1643700
       78722.000        72.238700        3.1739400
       78730.000        72.328400        3.1809900
       78737.000        72.401200        3.1833400
       78745.000        72.477100        3.1828300
       78752.000        72.537700        3.1806600
       78760.000        72.600300        3.1775900
       78770.000        72.670800        3.1744800
       78780.000        72.733800        3.1713600
       78790.000        72.791700        3.1713600
       78800.000        72.846000        3.1713600
       78815.000        72.922200        3.1737800
       78830.000        72.994100        3.1761900
       78840.000        73.039600        3.1765800
       78850.000        73.083200        3.1769700
       78865.000        73.144500        3.1751800
       78880.000        73.200700        3.1734000
       78890.000        73.235900        3.1719000
       78900.000        73.268900        3.1704100
       78920.000        73.331400        3.1694400
       78950.000        73.417500        3.1679900
       78970.000        73.470500        3.1676700
       79000.000        73.545400        3.1672000
       79020.000        73.592200        3.1657300
       79040.000        73.636200        3.1642700
       79060.000        73.677800        3.1628000
       79080.000        73.717200        3.1613400
       79100.000        73.754800        3.1603600
       79120.000        73.791100        3.1593700
       79150.000        73.843000        3.1579000
       79190.000        73.907800        3.1550700
       79230.000        73.967600        3.1522500
       79260.000        74.009800        3.1501300
       79300.000        74.062700        3.1473000
       79350.000        74.124500        3.1444400
       79400.000        74.182300        3.1415800
       79450.000        74.236500        3.1387200
       79500.000        74.287600        3.1358600
       79550.000        74.335900        3.1330000
       79600.000        74.381600        3.1301400
       79650.000        74.425100        3.1272800
       79700.000        74.466600        3.1244200
       79740.000        74.498400        3.1221300
       79780.000        74.529100        3.1198300
       79850.000        74.580400        3.1158200
       79920.000        74.629000        3.1118100
       79960.000        74.656600        3.1095100
       80000.000        74.681600        3.1072200
       80100.000        74.743300        3.1011500
       80200.000        74.800700        3.0950700
       80300.000        74.854600        3.0890000
       80400.000        74.905400        3.0829300
       80500.000        74.953400        3.0768500
       80600.000        74.998900        3.0707800
       80700.000        75.042100        3.0647100
       80800.000        75.083400        3.0586300
       80900.000        75.122800        3.0525600
       81000.000        75.160500        3.0464900
       81100.000        75.196700        3.0404100
       81200.000        75.231400        3.0343400
       81350.000        75.281100        3.0252300
       81500.000        75.328100        3.0161200
       81700.000        75.387100        3.0045400
       81900.000        75.442300        2.9929700
       82100.000        75.494200        2.9813900
       82300.000        75.543200        2.9698100
       82500.000        75.589500        2.9582300
       82700.000        75.633400        2.9466600
       82850.000        75.664900        2.9379700
       83000.000        75.695100        2.9292900
       83150.000        75.724300        2.9211900
       83300.000        75.752600        2.9130900
       83500.000        75.788900        2.9022900
       83800.000        75.840700        2.8860800
       84000.000        75.873600        2.8752800
       84300.000        75.920500        2.8595600
       84500.000        75.950400        2.8490800
       84800.000        75.993200        2.8333600
       85000.000        76.020300        2.8228800
       85400.000        76.072200        2.8036300
       85800.000        76.121600        2.7843800
       86200.000        76.168500        2.7651400
       86500.000        76.202500        2.7507000
       86700.000        76.224500        2.7408900
       86900.000        76.245700        2.7310900
       87100.000        76.266300        2.7212800
       87300.000        76.286300        2.7114700
       87700.000        76.324900        2.6918600
       88000.000        76.352900        2.6771500
       88300.000        76.379800        2.6625000
       88500.000        76.397100        2.6527300
       88800.000        76.422200        2.6380700
       89000.000        76.438500        2.6283000
       89300.000        76.462300        2.6138100
       89500.000        76.477500        2.6041500
       89800.000        76.499800        2.5896700
       90000.000        76.514100        2.5800100
       90400.000        76.541800        2.5615400
       90800.000        76.568400        2.5430600
       91200.000        76.594000        2.5245900
       91500.000        76.612300        2.5107300
       91900.000        76.636000        2.4930400
       92300.000        76.658900        2.4753500
       92700.000        76.680600        2.4576700
       93000.000        76.696400        2.4444000
       93300.000        76.711800        2.4316700
       93500.000        76.721800        2.4231800
       94000.000        76.746000        2.4019600
       94500.000        76.769100        2.3813300
       94800.000        76.782500        2.3689500
       95000.000        76.791100        2.3607000
       95400.000        76.807900        2.3451100
       95800.000        76.824400        2.3295100
       96200.000        76.840300        2.3139200
       96500.000        76.852000        2.3022200
       96900.000        76.867200        2.2872400
       97300.000        76.881800        2.2722700
       97700.000        76.896100        2.2572900
       98000.000        76.906500        2.2460600
       98500.000        76.923300        2.2279900
       99000.000        76.939600        2.2099300
       99500.000        76.955200        2.1923300
       99800.000        76.964400        2.1817800
       100000.00        76.970300        2.1747400
