;  Atomic scattering factors for Re.
;   
;  Concatenation of data from CXRO <http://www-cxro.lbl.gov>
;  and LLNL <http://www-phys.llnl.gov/V_Div/scattering/asf.html>
;  
;  E (eV) f1 f2
;---------------
       10.000000       -9999.0000        1.8209000
       10.161700       -9999.0000        1.9114500
       10.326100       -9999.0000        2.0065000
       10.493100       -9999.0000        2.1062900
       10.662800       -9999.0000        2.2110300
       10.835300       -9999.0000        2.2875300
       11.010600       -9999.0000        2.3602000
       11.188600       -9999.0000        2.4351800
       11.369600       -9999.0000        2.5125500
       11.553500       -9999.0000        2.5923700
       11.740400       -9999.0000        2.6759800
       11.930300       -9999.0000        2.7627200
       12.123200       -9999.0000        2.8522700
       12.319300       -9999.0000        2.9447200
       12.518600       -9999.0000        3.0401700
       12.721000       -9999.0000        3.1401200
       12.926800       -9999.0000        3.2436100
       13.135900       -9999.0000        3.3505200
       13.348300       -9999.0000        3.4609500
       13.564200       -9999.0000        3.5762200
       13.783600       -9999.0000        3.7051200
       14.006600       -9999.0000        3.8386700
       14.233100       -9999.0000        3.9770300
       14.463300       -9999.0000        4.1203900
       14.697300       -9999.0000        4.2583800
       14.935000       -9999.0000        4.3856500
       15.176500       -9999.0000        4.5167300
       15.422000       -9999.0000        4.6517100
       15.671400       -9999.0000        4.7907300
       15.924900       -9999.0000        4.9346300
       16.182500       -9999.0000        5.0897400
       16.444200       -9999.0000        5.2497200
       16.710200       -9999.0000        5.4147200
       16.980500       -9999.0000        5.5849100
       17.255100       -9999.0000        5.7604600
       17.534200       -9999.0000        5.9415100
       17.817800       -9999.0000        6.1282600
       18.106000       -9999.0000        6.2990700
       18.398900       -9999.0000        6.4656400
       18.696400       -9999.0000        6.6366200
       18.998800       -9999.0000        6.8121100
       19.306100       -9999.0000        6.9770700
       19.618400       -9999.0000        7.0763700
       19.935700       -9999.0000        7.1770800
       20.258200       -9999.0000        7.2792200
       20.585800       -9999.0000        7.3828100
       20.918800       -9999.0000        7.4878800
       21.257100       -9999.0000        7.5944500
       21.600900       -9999.0000        7.6334800
       21.950300       -9999.0000        7.6677600
       22.305300       -9999.0000        7.7021900
       22.666100       -9999.0000        7.7367800
       23.032700       -9999.0000        7.7715100
       23.405300       -9999.0000        7.7660100
       23.783800       -9999.0000        7.7097600
       24.168500       -9999.0000        7.6539200
       24.559400       -9999.0000        7.5984900
       24.956600       -9999.0000        7.5303900
       25.360300       -9999.0000        7.2837800
       25.770500       -9999.0000        7.0452400
       26.187300       -9999.0000        6.8145200
       26.610900       -9999.0000        6.5681700
       27.041300       -9999.0000        6.3006500
       27.478600       -9999.0000        6.0440200
       27.923100       -9999.0000        5.7978400
       28.374700       -9999.0000        5.5709000
       28.833700       -9999.0000        5.3529700
       29.300000        7.4598000        5.1435700
       29.773900        7.3629400        4.9423700
       30.255500        7.2467800        4.7403700
       30.744900        7.0831400        4.5344100
       31.242100        6.8586100        4.3373900
       31.747500        6.5394600        4.2425200
       32.260900        6.2966800        4.2270500
       32.782700        6.0731400        4.2116400
       33.313000        5.8436700        4.2023800
       33.851800        5.6147400        4.2070000
       34.399300        5.3752400        4.2116100
       34.955700        5.1014600        4.2162400
       35.521100        4.8033100        4.2845300
       36.095600        4.5115700        4.3609200
       36.679400        4.1997800        4.4386700
       37.272700        3.8350300        4.5178100
       37.875500        3.3651900        4.6363200
       38.488200        2.7541400        4.7972300
       39.110700        2.1347700        5.4140500
       39.743200        1.6935400        6.1101900
       40.386100        1.3832400        6.8958400
       41.039300        1.2272600        7.7825100
       41.703100        1.3422400        8.7831900
       42.377600        1.5998500        9.4548800
       43.063000        1.8537200        10.172900
       43.759500        2.2821400        10.945400
       44.467300        3.0114300        11.404200
       45.186500        3.5029300        11.646500
       45.917400        3.8962000        11.894000
       46.660000        4.2983200        12.146700
       47.414700        4.7415900        12.277800
       48.181600        5.0556600        12.338900
       48.960900        5.2219700        12.336400
       49.752800        5.2617000        12.516000
       50.557600        5.3114700        12.750700
       51.375300        5.2095600        13.068000
       52.206200        5.3143300        13.809700
       53.050600        5.6448000        14.526100
       53.908700        6.2501300        15.135500
       54.780600        6.8389900        15.627100
       55.666700        7.5040700        16.134700
       56.567000        8.2962300        16.485800
       57.482000        9.4129800        16.791500
       58.411700        10.277600        16.722300
       59.356400        11.024200        16.643900
       60.316500        11.745500        16.560300
       61.292100        12.498500        16.477200
       62.283400        13.327800        16.247500
       63.290800        14.045500        15.919700
       64.314500        14.785800        15.541100
       65.354700        15.453900        15.045300
       66.411800        16.098800        14.368400
       67.485900        16.455100        13.590800
       68.577500        16.587500        12.855400
       69.686700        16.627200        12.375400
       70.813800        16.701900        11.934800
       71.959100        16.778900        11.510000
       73.123000        16.835600        11.100300
       74.305700        16.870000        10.705100
       75.507600        16.881100        10.324000
       76.728900        16.867600        9.9565400
       77.969900        16.824100        9.6038200
       79.231000        16.764200        9.2850300
       80.512500        16.692400        8.9768000
       81.814700        16.604100        8.6788200
       83.138000        16.495300        8.3907100
       84.482700        16.362600        8.1121900
       85.849100        16.194600        7.8429100
       87.237700        15.945700        7.6263300
       88.648700        15.740200        7.4841400
       90.082500        15.555000        7.3446000
       91.539500        15.360700        7.2076700
       93.020100        15.138900        7.0732800
       94.524600        14.849300        6.9996400
       96.053500        14.621000        7.0028900
       97.607100        14.419500        7.0061500
       99.185800        14.224700        7.0094000
       100.79000        14.020400        7.0126600
       102.42000        13.760600        7.0319600
       104.07700        13.531900        7.1559400
       105.76000        13.348800        7.2821000
       107.47100        13.184000        7.4104900
       109.20900        13.025700        7.5411400
       110.97500        12.851900        7.6944100
       112.77000        12.714100        7.8846300
       114.59400        12.601200        8.0795600
       116.44800        12.506500        8.2793000
       118.33100        12.428800        8.4839800
       120.24500        12.372400        8.6937300
       122.19000        12.327600        8.8901800
       124.16600        12.286100        9.0894200
       126.17500        12.251400        9.2931300
       128.21500        12.224700        9.5014100
       130.28900        12.206700        9.7143400
       132.39700        12.198200        9.9320600
       134.53800        12.200400        10.154700
       136.71400        12.215900        10.382200
       138.92500        12.254100        10.605400
       141.17200        12.290300        10.816900
       143.45600        12.330100        11.032500
       145.77600        12.377900        11.252500
       148.13400        12.438600        11.476900
       150.53000        12.533500        11.705800
       152.96400        12.632400        11.875900
       155.43900        12.705700        12.040400
       157.95300        12.766100        12.207200
       160.50700        12.816200        12.376300
       163.10300        12.850000        12.547800
       165.74200        12.861800        12.754500
       168.42200        12.897100        12.988800
       171.14600        12.951800        13.227300
       173.91500        13.016900        13.470300
       176.72700        13.092300        13.717700
       179.58600        13.179100        13.969600
       182.49100        13.289400        14.222200
       185.44200        13.399400        14.453500
       188.44200        13.504600        14.688600
       191.48900        13.611500        14.927400
       194.58700        13.721300        15.170200
       197.73400        13.834900        15.416900
       200.93200        13.952400        15.667600
       204.18200        14.073900        15.922400
       207.48500        14.197300        16.181300
       210.84000        14.323900        16.452100
       214.25100        14.462700        16.732400
       217.71600        14.612400        17.017400
       221.23700        14.772300        17.307400
       224.81600        14.943300        17.602200
       228.45200        15.126100        17.902100
       232.14700        15.322200        18.207100
       235.90200        15.533800        18.517300
       239.71700        15.764800        18.832800
       243.59500        16.043500        19.144500
       247.53500        16.318300        19.409200
       251.53800        16.582600        19.677500
       255.60700        16.851500        19.949600
       259.74100        17.129200        20.225500
       263.94200        17.419600        20.505100
       268.21100        17.727000        20.788600
       272.54900        18.058400        21.076100
       276.95700        18.474100        21.343800
       281.43700        18.859800        21.514900
       285.98900        19.205000        21.687400
       290.61500        19.540500        21.861300
       295.31500        19.871300        22.036600
       300.09200        20.201600        22.213300
       304.94500        20.533100        22.387800
       309.87800        20.864600        22.562100
       314.89000        21.197800        22.737800
       319.98300        21.535200        22.914800
       325.15800        21.878600        23.093200
       330.41800        22.230800        23.273000
       335.76200        22.596800        23.454200
       341.19200        22.996800        23.630200
       346.71100        23.387400        23.752200
       352.31900        23.764300        23.875000
       358.01700        24.135300        23.998300
       363.80800        24.506500        24.122300
       369.69200        24.881200        24.246900
       375.67200        25.262800        24.372200
       381.74800        25.668000        24.498100
       387.92200        26.095700        24.583000
       394.19700        26.490000        24.629600
       400.57300        26.860500        24.676300
       407.05200        27.213600        24.723100
       413.63500        27.541000        24.770000
       420.32600        27.842300        24.865700
       427.12400        28.174500        24.996400
       434.03200        28.541000        25.127900
       441.05200        28.935200        25.260000
       448.18600        29.353200        25.357200
       455.43500        29.762000        25.434700
       462.80200        30.162400        25.512600
       470.28700        30.565300        25.590600
       477.89400        30.972900        25.668900
       485.62300        31.387500        25.747500
       493.47800        31.811500        25.826200
       501.45900        32.248000        25.905200
       509.57000        32.701600        25.984500
       517.81200        33.180800        26.064000
       526.18700        33.705600        26.143700
       534.69800        34.388000        26.223700
       543.34600        34.911400        25.905300
       552.13400        35.329100        25.760900
       561.06500        35.713200        25.595100
       570.13900        35.985800        25.441500
       579.36100        36.266400        25.440900
       588.73200        36.588100        25.481900
       598.25400        36.973300        25.549800
       607.93000        37.408700        25.617600
       617.76300        37.896800        25.685700
       627.75500        38.478500        25.745100
       637.90800        39.140300        25.694200
       648.22600        39.813700        25.480500
       658.71100        40.353000        25.162200
       669.36500        40.794900        24.847700
       680.19100        41.171800        24.581200
       691.19300        41.540400        24.351500
       702.37200        41.931000        24.132900
       713.73300        42.322300        23.887200
       725.27700        42.685500        23.624000
       737.00800        43.027600        23.363600
       748.92800        43.355700        23.105900
       761.04200        43.674400        22.850700
       773.35100        43.988900        22.593800
       785.85900        44.296000        22.324600
       798.57000        44.580700        22.046200
       811.48600        44.847800        21.771000
       824.61100        45.101500        21.499300
       837.94900        45.345100        21.230900
       851.50200        45.579200        20.962500
       865.27400        45.803500        20.694200
       879.26900        46.015700        20.426400
       893.49100        46.217600        20.161700
       907.94300        46.411400        19.900300
       922.62800        46.601700        19.642100
       937.55100        46.783000        19.375100
       952.71500        46.953200        19.108500
       968.12400        47.111200        18.843000
       983.78300        47.260400        18.580900
       999.69500        47.403900        18.319700
       1015.8600        47.546200        18.059400
       1032.2900        47.674200        17.779500
       1048.9900        47.784900        17.500400
       1065.9600        47.877100        17.221800
       1083.2000        47.953800        16.947500
       1100.7200        48.016900        16.677300
       1118.5200        48.067200        16.411300
       1136.6100        48.105100        16.149300
       1155.0000        48.130900        15.891200
       1173.6800        48.144700        15.636800
       1192.6600        48.146700        15.386400
       1211.9500        48.137600        15.139800
       1231.5500        48.119100        14.896600
       1251.4700        48.090200        14.650500
       1271.7200        48.048100        14.400900
       1292.2900        47.982800        14.146300
       1313.1900        47.895100        13.895900
       1334.4300        47.786600        13.650000
       1356.0100        47.657100        13.408200
       1377.9400        47.505700        13.170400
       1400.2300        47.331100        12.936400
       1422.8800        47.131000        12.706200
       1445.8900        46.903400        12.480000
       1469.2800        46.646000        12.257500
       1493.0400        46.355200        12.038400
       1517.1900        46.026200        11.821900
       1541.7300        45.653400        11.608800
       1566.6700        45.230100        11.399200
       1592.0100        44.747900        11.193100
       1617.7600        44.195900        10.990800
       1643.9200        43.559700        10.792300
       1670.5100        42.819200        10.596900
       1697.5300        41.945300        10.404800
       1724.9900        40.897800        10.216000
       1752.8900        39.605500        10.025400
       1781.2400        37.948700        9.8364800
       1810.0500        35.694300        9.6495700
       1839.3200        32.255900        9.4662700
       1869.0700        24.894600        9.2864500
       1882.8000       -4.1172300        9.2055800
       1883.0000       -4.1137300        27.546900
       1899.3000        24.918700        27.160800
       1930.0200        27.768900        26.456500
       1948.8000        9.5670700        26.040400
       1949.0000        9.6033600        38.603200
       1961.2400        29.673500        38.268400
       1992.9600        37.112500        37.423500
       2025.2000        41.074800        36.605700
       2057.9500        43.895500        35.797000
       2091.2400        46.081400        35.005700
       2125.0600        47.845200        34.232200
       2159.4300        49.294100        33.475900
       2194.3600        50.484600        32.736000
       2229.8500        51.440200        32.012500
       2265.9200        52.151600        31.305400
       2302.5700        52.542200        30.613900
       2339.8100        52.234200        29.937900
       2367.2000        44.761900        29.457000
       2367.4000        44.780800        34.331700
       2377.6600        51.767700        34.101000
       2416.1100        54.988200        33.258200
       2455.1900        56.605100        32.436300
       2494.9000        57.779000        31.636300
       2535.2600        58.695000        30.855200
       2576.2600        59.407100        30.094600
       2617.9300        59.901100        29.353100
       2660.2700        59.943400        28.630600
       2681.5000        57.411400        28.279300
       2681.7000        57.424600        30.147200
       2703.3000        60.581300        29.795300
       2747.0300        61.771300        29.104100
       2791.4600        62.542100        28.429200
       2836.6100        63.121500        27.771200
       2882.4900        63.509600        27.129000
       2929.1100        62.962700        26.502700
       2931.6000        61.848600        26.470000
       2931.8000        61.856800        27.619800
       2976.4800        64.546100        27.050400
       3024.6300        65.286500        26.459300
       3073.5500        65.879000        25.876300
       3123.2600        66.393500        25.304400
       3173.7800        66.853800        24.742500
       3225.1100        67.272200        24.191400
       3277.2700        67.654100        23.648900
       3330.2800        68.005100        23.118000
       3384.1500        68.329600        22.596400
       3438.8800        68.628500        22.084100
       3494.5000        68.905000        21.582700
       3551.0200        69.161200        21.090600
       3608.4600        69.398000        20.608200
       3666.8200        69.617300        20.135400
       3726.1300        69.819900        19.671600
       3786.4000        70.007200        19.217900
       3847.6400        70.179700        18.772600
       3909.8700        70.339100        18.337900
       3973.1100        70.486000        17.910600
       4037.3800        70.620500        17.493100
       4102.6800        70.744100        17.084200
       4169.0300        70.857100        16.683900
       4236.4600        70.960100        16.292100
       4304.9800        71.053700        15.908400
       4374.6200        71.138200        15.533100
       4445.3700        71.214300        15.165600
       4517.2700        71.282100        14.806100
       4590.3300        71.342300        14.454500
       4664.5800        71.395200        14.110500
       4740.0300        71.441100        13.773900
       4816.6900        71.480400        13.444900
       4894.6000        71.513500        13.123100
       4973.7700        71.540400        12.808200
       5054.2100        71.561500        12.500500
       5135.9600        71.577200        12.199700
       5219.0300        71.587600        11.905500
       5303.4400        71.592800        11.617900
       5389.2200        71.593100        11.336900
       5476.3900        71.588900        11.062300
       5564.9700        71.580000        10.793800
       5654.9800        71.566800        10.531700
       5746.4400        71.549400        10.275300
       5839.3900        71.527800        10.024900
       5933.8300        71.502200        9.7802700
       6029.8100        71.472600        9.5413000
       6127.3300        71.439200        9.3078100
       6226.4400        71.402000        9.0798500
       6327.1500        71.361100        8.8571500
       6429.4800        71.316400        8.6397000
       6533.4800        71.268000        8.4272100
       6639.1500        71.215900        8.2198500
       6746.5400        71.160100        8.0172300
       6855.6500        71.100300        7.8195100
       6966.5400        71.036800        7.6264900
       7079.2200        70.969200        7.4377100
       7193.7200        70.897300        7.2537800
       7310.0700        70.821300        7.0741000
       7428.3100        70.740700        6.8986200
       7548.4500        70.655200        6.7273000
       7670.5400        70.564600        6.5601600
       7794.6100        70.468500        6.3968600
       7920.6800        70.366200        6.2373100
       8048.7900        70.257300        6.0818100
       8178.9800        70.141100        5.9300700
       8311.2600        70.016900        5.7817600
       8445.6900        69.883400        5.6370100
       8582.2900        69.739400        5.4958400
       8721.1100        69.583300        5.3580600
       8862.1600        69.413200        5.2235700
       9005.5000        69.226200        5.0923900
       9151.1600        69.018900        4.9639900
       9299.1700        68.786300        4.8390300
       9449.5800        68.521700        4.7169500
       9602.4200        68.214900        4.5978800
       9757.7300        67.849900        4.4815900
       9915.5500        67.398400        4.3679800
       10075.900        66.809000        4.2624300
       10238.900        65.961000        4.1598800
       10404.500        64.392700        4.0602400
       10535.200        50.448500        3.9843800
       10535.400        50.449100        10.121400
       10572.800        62.072300        10.056100
       10743.800        65.446500        9.7652700
       10917.600        66.562400        9.4829000
       11094.200        67.167700        9.2087000
       11273.600        67.500700        8.9424200
       11455.900        67.619800        8.6838500
       11641.200        67.491500        8.4327600
       11829.500        66.857600        8.1889200
       11958.600        59.838600        8.0280100
       11958.800        59.839800        11.238000
       12020.800        66.319200        11.140700
       12215.300        67.839700        10.844200
       12412.800        68.209800        10.555600
       12526.600        65.321000        10.394900
       12526.800        65.321600        11.841100
       12613.600        68.673700        11.723300
       12817.600        69.697700        11.454000
       13025.000        70.337100        11.189000
       13235.600        70.835600        10.928300
       13449.700        71.250600        10.671900
       13667.200        71.607300        10.419800
       13888.300        71.919700        10.172200
       14112.900        72.196700        9.9289500
       14341.200        72.444300        9.6901700
       14573.100        72.667300        9.4558100
       14808.900        72.868800        9.2259000
       15048.400        73.051600        9.0004100
       15291.800        73.217800        8.7793500
       15539.100        73.369200        8.5626700
       15790.400        73.507400        8.3503700
       16045.800        73.633500        8.1424000
       16305.400        73.748700        7.9387500
       16569.100        73.853900        7.7393700
       16837.100        73.949900        7.5442200
       17109.400        74.037400        7.3532600
       17386.100        74.117200        7.1664500
       17667.400        74.189900        6.9837200
       17953.100        74.255800        6.8050500
       18243.500        74.315600        6.6303600
       18538.600        74.369600        6.4596200
       18838.400        74.418300        6.2927500
       19143.100        74.462000        6.1297100
       19452.700        74.501100        5.9704400
       19767.400        74.535800        5.8148700
       20087.100        74.566500        5.6629500
       20412.000        74.593400        5.5146100
       20742.100        74.616800        5.3698000
       21077.600        74.636800        5.2284400
       21418.500        74.653800        5.0904900
       21765.000        74.667900        4.9558700
       22117.000        74.679300        4.8245300
       22474.700        74.688100        4.6964100
       22838.200        74.694600        4.5714200
       23207.600        74.698800        4.4495300
       23583.000        74.701000        4.3306700
       23964.400        74.701200        4.2147700
       24352.000        74.699600        4.1017700
       24745.900        74.696300        3.9916100
       25146.200        74.691500        3.8842400
       25552.900        74.685100        3.7795900
       25966.200        74.677300        3.6776100
       26386.100        74.668200        3.5782300
       26812.900        74.658000        3.4814100
       27246.600        74.646500        3.3870700
       27687.300        74.634100        3.2951700
       28135.100        74.620700        3.2056500
       28590.200        74.606500        3.1184500
       29052.600        74.591900        3.0335300
       29522.500        74.584300        2.9508300
       30000.000        74.533700        2.8703000
       30400.000        74.487200        2.8978800
       30800.000        74.473200        2.8335500
       31200.000        74.459000        2.7714600
       31500.000        74.448100        2.7262900
       31900.000        74.433400        2.6678500
       32300.000        74.418700        2.6113700
       32600.000        74.407500        2.5702400
       33000.000        74.392700        2.5169800
       33400.000        74.377600        2.4650600
       33800.000        74.362500        2.4148200
       34100.000        74.351000        2.3781800
       34500.000        74.335600        2.3306900
       34900.000        74.320200        2.2846700
       35300.000        74.304700        2.2399900
       35700.000        74.289100        2.1966500
       36030.000        74.276300        2.1618800
       36500.000        74.257900        2.1138300
       37000.000        74.238400        2.0645400
       37500.000        74.218800        2.0170400
       38000.000        74.199300        1.9712400
       38500.000        74.179800        1.9270600
       39000.000        74.160300        1.8844200
       39500.000        74.141000        1.8432400
       40000.000        74.121700        1.8034700
       40600.000        74.098600        1.7571100
       41100.000        74.079200        1.7198900
       41600.000        74.059900        1.6839000
       42195.000        74.036900        1.6425800
       42600.000        74.021200        1.6153600
       43100.000        74.001800        1.5827300
       43600.000        73.982400        1.5511100
       44000.000        73.966900        1.5265300
       44500.000        73.947600        1.4966600
       45000.000        73.928300        1.4676900
       45500.000        73.908800        1.4393800
       46000.000        73.889400        1.4119200
       46500.000        73.869800        1.3852800
       47000.000        73.850100        1.3594100
       47500.000        73.830300        1.3342900
       48000.000        73.810500        1.3099000
       48500.000        73.790400        1.2861900
       49000.000        73.770400        1.2631500
       49500.000        73.750200        1.2407500
       50000.000        73.729800        1.2189700
       51000.000        73.688600        1.1769300
       52000.000        73.646300        1.1371200
       53000.000        73.603000        1.0993700
       54000.000        73.558400        1.0635500
       55000.000        73.512300        1.0295200
       56000.000        73.464400       0.99707400
       56800.000        73.424600       0.97225200
       57530.000        73.386800       0.95043300
       58000.000        73.361700       0.93678800
       58500.000        73.334300       0.92260500
       59000.000        73.306000       0.90892900
       59540.000        73.274500       0.89415800
       59800.000        73.258800       0.88726000
       59900.000        73.252800       0.88463500
       60000.000        73.246600       0.88201000
       60400.000        73.221700       0.87171100
       60800.000        73.195900       0.86141200
       61100.000        73.176000       0.85394900
       61500.000        73.148700       0.84399800
       61900.000        73.120400       0.83437900
       62300.000        73.091000       0.82475900
       62600.000        73.068200       0.81778300
       63000.000        73.036700       0.80848100
       63500.000        72.995300       0.79728100
       64000.000        72.951400       0.78608200
       64300.000        72.923700       0.77964800
       64500.000        72.904600       0.77535900
       64800.000        72.875000       0.76892500
       65000.000        72.854500       0.76463600
       65300.000        72.822700       0.75845900
       65500.000        72.800600       0.75434100
       65700.000        72.777900       0.75022300
       65900.000        72.754300       0.74610500
       66200.000        72.717500       0.74016200
       66400.000        72.691700       0.73620000
       66600.000        72.665000       0.73223800
       66830.000        72.633000       0.72768200
       66960.000        72.614200       0.72518600
       67100.000        72.593300       0.72249800
       67400.000        72.546500       0.71673900
       67700.000        72.496200       0.71111800
       67850.000        72.469600       0.70830700
       68000.000        72.442000       0.70549600
       68300.000        72.383200       0.70005500
       68500.000        72.341000       0.69642700
       68650.000        72.307700       0.69370600
       68800.000        72.272600       0.69098600
       68900.000        72.248200       0.68917200
       69000.000        72.222900       0.68735800
       69150.000        72.183200       0.68474500
       69300.000        72.141200       0.68213200
       69400.000        72.111700       0.68039000
       69500.000        72.080900       0.67864800
       69650.000        72.032100       0.67603400
       69800.000        71.979700       0.67342100
       69900.000        71.942600       0.67167900
       70000.000        71.903300       0.66993700
       70080.000        71.870400       0.66858800
       70150.000        71.839900       0.66740700
       70230.000        71.804200       0.66605800
       70300.000        71.771100       0.66487800
       70400.000        71.721100       0.66319100
       70500.000        71.667400       0.66150500
       70600.000        71.609500       0.65981800
       70700.000        71.546600       0.65813200
       70750.000        71.513100       0.65728900
       70800.000        71.478000       0.65644500
       70850.000        71.441100       0.65560200
       70900.000        71.402400       0.65475900
       70970.000        71.344600       0.65362100
       71010.000        71.309400       0.65297100
       71050.000        71.272500       0.65232100
       71090.000        71.233800       0.65167100
       71130.000        71.192900       0.65102100
       71170.000        71.149800       0.65037100
       71200.000        71.115700       0.64988300
       71250.000        71.055400       0.64907000
       71300.000        70.989900       0.64825800
       71350.000        70.918400       0.64744500
       71380.000        70.872000       0.64695800
       71400.000        70.839500       0.64663200
       71420.000        70.805600       0.64630700
       71450.000        70.751800       0.64582000
       71470.000        70.713700       0.64549500
       71500.000        70.652900       0.64500700
       71520.000        70.609600       0.64468200
       71550.000        70.539800       0.64419500
       71570.000        70.489500       0.64386900
       71585.000        70.449600       0.64362600
       71600.000        70.407600       0.64338200
       71615.000        70.363200       0.64313800
       71630.000        70.316200       0.64289400
       71650.000        70.248800       0.64256900
       71670.000        70.175300       0.64224400
       71685.000        70.115300       0.64200000
       71700.000        70.050400       0.64175700
       71710.000        70.003900       0.64159400
       71720.000        69.954700       0.64143100
       71730.000        69.902300       0.64126900
       71740.000        69.846200       0.64110600
       71748.000        69.798300       0.64097600
       71755.000        69.753900       0.64086300
       71763.000        69.700000       0.64073300
       71770.000        69.649700       0.64061900
       71780.000        69.571800       0.64045600
       71790.000        69.485700       0.64029400
       71795.000        69.439000       0.64021300
       71800.000        69.389400       0.64013100
       71805.000        69.336600       0.64005000
       71810.000        69.280100       0.63996900
       71814.000        69.231700       0.63990400
       71818.000        69.180500       0.63983900
       71822.000        69.125700       0.63977400
       71825.000        69.082100       0.63972500
       71829.000        69.020100       0.63966000
       71833.000        68.952900       0.63959500
       71836.000        68.898600       0.63954600
       71840.000        68.820300       0.63948100
       71842.000        68.777900       0.63944900
       71845.000        68.710200       0.63940000
       71848.000        68.636200       0.63935100
       71850.000        68.582900       0.63931900
       71853.000        68.496000       0.63927000
       71855.000        68.432400       0.63923700
       71858.000        68.326800       0.63918900
       71860.000        68.248000       0.63915600
       71862.000        68.160500       0.63912400
       71864.000        68.063100       0.63909100
       71866.000        67.952500       0.63905900
       71868.000        67.824600       0.63902600
       71870.000        67.673100       0.63899400
       71871.000        67.585600       0.63897700
       71872.000        67.486700       0.63896100
       71873.000        67.374200       0.63894500
       71874.000        67.242300       0.63892900
       71875.400        67.004600       0.63890600
       71876.800        66.610900       0.63888300
       71876.900        66.612300       0.71508200
       71877.000        66.617000       0.79128100
       71877.200        66.625300       0.94367900
       71877.500        66.634600        1.1722800
       71878.200        66.633600        1.7056700
       71879.700        66.516400       0.63883700
       71880.400        66.086400       0.63882600
       71881.100        65.586400       0.63881400
       71881.900        64.766200       0.63880100
       71882.600        63.437000       0.63879000
       71883.300        64.969700        6.2489500
       71884.000        66.463000        11.859100
       71885.100        68.575300       0.63875100
       71885.300        69.061000       0.63874800
       71885.500        69.447700       0.63874400
       71886.500        67.849100        2.7092700
       71888.000        67.086900        1.9557500
       71888.700        66.926200        2.9672300
       71889.500        67.051100        3.5109500
       71890.300        67.500900        3.4787300
       71891.000        67.738000        3.4504300
       71891.800        67.859700        3.4190200
       71892.500        67.945400        3.3915400
       71893.300        68.024100        3.3607100
       71894.000        68.081100        3.3333700
       71894.800        68.133000        3.3030600
       71895.500        68.173200        3.2864500
       71896.300        68.213300        3.2721700
       71897.000        68.248100        3.2597000
       71897.800        68.285200        3.2456200
       71898.500        68.315700        3.2333000
       71899.300        68.345200        3.2192500
       71900.000        68.369100        3.2070000
       71901.500        68.414700        3.1963000
       71903.000        68.460700        3.1855800
       71904.000        68.488100        3.1784700
       71905.000        68.513400        3.1713600
       71906.500        68.548300        3.1687400
       71908.000        68.583800        3.1661100
       71909.000        68.604800        3.1643800
       71910.000        68.626600        3.1626300
       71911.500        68.655700        3.1645200
       71913.000        68.686200        3.1664200
       71915.000        68.725100        3.1712900
       71917.000        68.763400        3.1768200
       71920.000        68.819400        3.1851100
       71925.000        68.910300        3.1999000
       71930.000        68.997400        3.2121600
       71935.000        69.080600        3.2207000
       71940.000        69.158400        3.2255000
       71945.000        69.230500        3.2266600
       71950.000        69.296700        3.2253200
       71955.000        69.356800        3.2222700
       71960.000        69.411400        3.2192300
       71965.000        69.461900        3.2164600
       71970.000        69.508000        3.2137000
       71975.000        69.551100        3.2125700
       71980.000        69.591600        3.2114400
       71990.000        69.667400        3.2118900
       72000.000        69.738100        3.2142900
       72010.000        69.805500        3.2155600
       72020.000        69.868700        3.2168200
       72030.000        69.927200        3.2168500
       72040.000        69.982700        3.2168900
       72050.000        70.034800        3.2153000
       72060.000        70.082800        3.2137100
       72070.000        70.127400        3.2121300
       72080.000        70.169400        3.2105400
       72100.000        70.248800        3.2094800
       72120.000        70.321500        3.2084100
       72140.000        70.388600        3.2072400
       72160.000        70.450800        3.2060800
       72180.000        70.508800        3.2049100
       72200.000        70.563100        3.2037400
       72230.000        70.638600        3.2020200
       72250.000        70.685700        3.2008700
       72270.000        70.730100        3.1997200
       72300.000        70.792900        3.1980000
       72320.000        70.832400        3.1968500
       72350.000        70.888500        3.1951200
       72380.000        70.941300        3.1934000
       72400.000        70.975100        3.1922500
       72420.000        71.007500        3.1907900
       72450.000        71.053900        3.1886100
       72470.000        71.083400        3.1871500
       72500.000        71.125900        3.1849700
       72550.000        71.192300        3.1813200
       72600.000        71.253900        3.1776800
       72650.000        71.311400        3.1745800
       72700.000        71.364800        3.1714800
       72750.000        71.415300        3.1683800
       72800.000        71.463400        3.1652800
       72850.000        71.509300        3.1621900
       72900.000        71.553600        3.1590900
       72950.000        71.595800        3.1559900
       73000.000        71.635800        3.1528900
       73050.000        71.674100        3.1494000
       73100.000        71.710800        3.1459000
       73150.000        71.746000        3.1424100
       73200.000        71.780100        3.1389100
       73300.000        71.844300        3.1312000
       73400.000        71.903500        3.1234900
       73500.000        71.958300        3.1169700
       73600.000        72.009700        3.1104500
       73700.000        72.058700        3.1039300
       73800.000        72.105200        3.0974100
       73900.000        72.149500        3.0917700
       74000.000        72.191900        3.0861400
       74100.000        72.232700        3.0805000
       74200.000        72.271900        3.0748600
       74300.000        72.309600        3.0687200
       74400.000        72.346200        3.0625700
       74500.000        72.381800        3.0564300
       74600.000        72.416200        3.0502900
       74700.000        72.449000        3.0441400
       74800.000        72.480700        3.0380000
       74960.000        72.529300        3.0281700
       75080.000        72.564400        3.0197800
       75200.000        72.597700        3.0113900
       75350.000        72.637400        3.0009000
       75500.000        72.675000        2.9904100
       75650.000        72.711000        2.9803400
       75800.000        72.745400        2.9702700
       75900.000        72.767500        2.9635600
       76000.000        72.788900        2.9568500
       76150.000        72.820000        2.9475500
       76300.000        72.850100        2.9382500
       76450.000        72.879300        2.9289600
       76600.000        72.907500        2.9196600
       76750.000        72.934700        2.9106900
       76900.000        72.960900        2.9017200
       77110.000        72.995900        2.8891700
       77300.000        73.026700        2.8787400
       77500.000        73.058100        2.8677700
       77700.000        73.088600        2.8567900
       77900.000        73.118200        2.8458200
       78100.000        73.146800        2.8350600
       78300.000        73.174600        2.8243100
       78600.000        73.214700        2.8081700
       79000.000        73.265900        2.7866300
       79300.000        73.302600        2.7704800
       79700.000        73.348800        2.7489300
       79850.000        73.365500        2.7408600
       80000.000        73.382100        2.7327800
       80200.000        73.403600        2.7218500
       80400.000        73.424300        2.7109200
       80600.000        73.444400        2.6999800
       80800.000        73.463900        2.6890500
       81000.000        73.482900        2.6781200
       81200.000        73.501400        2.6671900
       81500.000        73.528400        2.6507900
       81700.000        73.545900        2.6400900
       81900.000        73.562700        2.6294000
       82100.000        73.579100        2.6187000
       82300.000        73.595100        2.6080000
       82700.000        73.625800        2.5866100
       83000.000        73.647600        2.5705600
       83300.000        73.668600        2.5555000
       83500.000        73.682400        2.5454700
       83800.000        73.702400        2.5304100
       84000.000        73.715400        2.5203700
       84300.000        73.734400        2.5057800
       84500.000        73.746700        2.4960600
       84800.000        73.764700        2.4814700
       85000.000        73.776300        2.4717400
       85400.000        73.798900        2.4533000
       85800.000        73.820700        2.4348600
       86200.000        73.841700        2.4164200
       86500.000        73.856900        2.4025900
       86900.000        73.876600        2.3849700
       87300.000        73.895600        2.3673400
       87700.000        73.913800        2.3497200
       88000.000        73.927000        2.3365000
       88300.000        73.939900        2.3239000
       88500.000        73.948300        2.3155000
       89000.000        73.968800        2.2945000
       89500.000        73.988500        2.2741100
       89800.000        73.999900        2.2618700
       90000.000        74.007400        2.2537100
       90400.000        74.022000        2.2379800
       90800.000        74.036100        2.2222600
       91200.000        74.049800        2.2065300
       91500.000        74.059800        2.1947400
       91900.000        74.072800        2.1796700
       92300.000        74.085500        2.1646100
       92700.000        74.097700        2.1495400
       93000.000        74.106700        2.1382400
       93500.000        74.121200        2.1200600
       94000.000        74.135200        2.1018800
       94500.000        74.148700        2.0841900
       94800.000        74.156700        2.0735800
       95000.000        74.161900        2.0665000
       95400.000        74.172100        2.0526600
       95800.000        74.182000        2.0388300
       96200.000        74.191600        2.0249900
       96500.000        74.198600        2.0146100
       96900.000        74.207700        2.0013200
       97300.000        74.216600        1.9880400
       97700.000        74.225300        1.9747500
       98000.000        74.231700        1.9647900
       98500.000        74.242100        1.9485600
       99000.000        74.252100        1.9323400
       99500.000        74.261700        1.9165400
       99800.000        74.267400        1.9070600
       100000.00        74.271200        1.9007400
