;  Atomic scattering factors for Se.
;   
;  Concatenation of data from CXRO <http://www-cxro.lbl.gov>
;  and LLNL <http://www-phys.llnl.gov/V_Div/scattering/asf.html>
;  
;  E (eV) f1 f2
;---------------
       10.000000       -9999.0000        5.2024100
       10.161700       -9999.0000        5.3600500
       10.326100       -9999.0000        5.5224700
       10.493100       -9999.0000        5.6301700
       10.662800       -9999.0000        5.6622100
       10.835300       -9999.0000        5.6944300
       11.010600       -9999.0000        5.7176200
       11.188600       -9999.0000        5.7270900
       11.369600       -9999.0000        5.7365900
       11.553500       -9999.0000        5.7461000
       11.740400       -9999.0000        5.7555800
       11.930300       -9999.0000        5.7436700
       12.123200       -9999.0000        5.7317900
       12.319300       -9999.0000        5.7199300
       12.518600       -9999.0000        5.7080900
       12.721000       -9999.0000        5.6911600
       12.926800       -9999.0000        5.6679800
       13.135900       -9999.0000        5.6448900
       13.348300       -9999.0000        5.6219000
       13.564200       -9999.0000        5.5989900
       13.783600       -9999.0000        5.5761900
       14.006600       -9999.0000        5.5534700
       14.233100       -9999.0000        5.5308500
       14.463300       -9999.0000        5.5083200
       14.697300       -9999.0000        5.4858800
       14.935000       -9999.0000        5.4641600
       15.176500       -9999.0000        5.4717900
       15.422000       -9999.0000        5.4794500
       15.671400       -9999.0000        5.4871000
       15.924900       -9999.0000        5.4947700
       16.182500       -9999.0000        5.5024500
       16.444200       -9999.0000        5.5101400
       16.710200       -9999.0000        5.4851900
       16.980500       -9999.0000        5.4583000
       17.255100       -9999.0000        5.4315400
       17.534200       -9999.0000        5.4049100
       17.817800       -9999.0000        5.3784000
       18.106000       -9999.0000        5.3599700
       18.398900       -9999.0000        5.3438000
       18.696400       -9999.0000        5.3276800
       18.998800       -9999.0000        5.3116100
       19.306100       -9999.0000        5.2955800
       19.618400       -9999.0000        5.2767400
       19.935700       -9999.0000        5.2293100
       20.258200       -9999.0000        5.1823000
       20.585800       -9999.0000        5.1357200
       20.918800       -9999.0000        5.0895500
       21.257100       -9999.0000        5.0438000
       21.600900       -9999.0000        4.9797600
       21.950300       -9999.0000        4.8565800
       22.305300       -9999.0000        4.7364500
       22.666100       -9999.0000        4.6193000
       23.032700       -9999.0000        4.5012000
       23.405300       -9999.0000        4.2824800
       23.783800       -9999.0000        4.0743900
       24.168500       -9999.0000        3.8764200
       24.559400       -9999.0000        3.6880600
       24.956600       -9999.0000        3.5088600
       25.360300       -9999.0000        3.3383600
       25.770500       -9999.0000        3.1761500
       26.187300       -9999.0000        3.0218200
       26.610900       -9999.0000        2.8749900
       27.041300       -9999.0000        2.7353000
       27.478600       -9999.0000        2.6023900
       27.923100       -9999.0000        2.4759400
       28.374700       -9999.0000        2.3556300
       28.833700       -9999.0000        2.2411700
       29.300000        7.8121000        2.1322700
       29.773900        7.7726400        2.0286700
       30.255500        7.7307800        1.9300900
       30.744900        7.6873100        1.8363100
       31.242100        7.6432900        1.7450300
       31.747500        7.5947600        1.6566600
       32.260900        7.5432600        1.5727600
       32.782700        7.4895400        1.4931100
       33.313000        7.4338900        1.4175000
       33.851800        7.3764900        1.3457100
       34.399300        7.3175200        1.2775600
       34.955700        7.2570900        1.2128700
       35.521100        7.1953200        1.1514400
       36.095600        7.1324800        1.0931300
       36.679400        7.0686700        1.0367900
       37.272700        7.0024800       0.98284900
       37.875500        6.9343300       0.93171400
       38.488200        6.8643800       0.88323800
       39.110700        6.7925600       0.83728600
       39.743200        6.7187100       0.79372300
       40.386100        6.6425800       0.75242700
       41.039300        6.5631500       0.71328000
       41.703100        6.4781000       0.67828000
       42.377600        6.3943100       0.65125400
       43.063000        6.3114100       0.62530300
       43.759500        6.2270500       0.60038700
       44.467300        6.1397700       0.57663000
       45.186500        6.0501700       0.55606600
       45.917400        5.9577800       0.53623500
       46.660000        5.8592500       0.51711100
       47.414700        5.7526300       0.50798300
       48.181600        5.6500600       0.50422700
       48.960900        5.5468700       0.50049900
       49.752800        5.4391500       0.49679800
       50.557600        5.3258900       0.49634400
       51.375300        5.2072600       0.49650000
       52.206200        5.0794700       0.49665800
       53.050600        4.9377100       0.49938300
       53.908700        4.7780100       0.50374900
       54.780600        4.5891400       0.51642400
       55.666700        4.3373800       0.53143500
       56.567000        3.9658900       0.71186000
       57.482000        3.7683100        1.1478300
       58.411700        3.9112000        1.4796000
       59.356400        4.0225500        1.6091800
       60.316500        4.1162000        1.6492200
       61.292100        4.1677900        1.6590700
       62.283400        4.1008600        1.5587000
       63.290800        3.9854000        1.5841200
       64.314500        3.8532900        1.6099600
       65.354700        3.7194100        1.7021100
       66.411800        3.6030500        1.8006400
       67.485900        3.4949300        1.9070000
       68.577500        3.3916200        2.0205100
       69.686700        3.2920600        2.1407900
       70.813800        3.1965600        2.2682300
       71.959100        3.1079500        2.4032500
       73.123000        3.0278600        2.5343400
       74.305700        2.9413300        2.6648500
       75.507600        2.8520900        2.8020800
       76.728900        2.7616600        2.9463800
       77.969900        2.6706800        3.0981000
       79.231000        2.5792900        3.2576400
       80.512500        2.4872400        3.4254000
       81.814700        2.3919900        3.6017900
       83.138000        2.2948200        3.7986900
       84.482700        2.2083500        4.0121100
       85.849100        2.1313000        4.2375100
       87.237700        2.0644200        4.4755900
       88.648700        2.0115600        4.7270400
       90.082500        1.9834000        4.9926100
       91.539500        1.9828100        5.2368800
       93.020100        1.9694200        5.4715000
       94.524600        1.9548300        5.7166100
       96.053500        1.9450800        5.9727100
       97.607100        1.9441000        6.2402900
       99.185800        1.9555900        6.5198400
       100.79000        1.9864700        6.8119300
       102.42000        2.0568700        7.1171000
       104.07700        2.1589600        7.3702900
       105.76000        2.2350200        7.6047200
       107.47100        2.3029800        7.8466000
       109.20900        2.3711400        8.0961800
       110.97500        2.4437400        8.3536900
       112.77000        2.5239100        8.6194000
       114.59400        2.6155700        8.8935500
       116.44800        2.7250000        9.1764400
       118.33100        2.8734100        9.4571200
       120.24500        3.0160200        9.6921000
       122.19000        3.1492400        9.9329100
       124.16600        3.2813000        10.179700
       126.17500        3.4181700        10.432700
       128.21500        3.5627900        10.691900
       130.28900        3.7185400        10.957500
       132.39700        3.8900500        11.229800
       134.53800        4.0906900        11.508800
       136.71400        4.3248900        11.746400
       138.92500        4.5396600        11.962200
       141.17200        4.7438000        12.181900
       143.45600        4.9507600        12.405600
       145.77600        5.1641900        12.633500
       148.13400        5.3890800        12.865600
       150.53000        5.6436600        13.101300
       152.96400        5.8998600        13.292900
       155.43900        6.1455600        13.487400
       157.95300        6.3919100        13.684700
       160.50700        6.6432900        13.884900
       163.10300        6.9032000        14.088000
       165.74200        7.1758500        14.294100
       168.42200        7.4722100        14.503200
       171.14600        7.7991300        14.676200
       173.91500        8.1088400        14.825000
       176.72700        8.4080200        14.975300
       179.58600        8.7097500        15.127100
       182.49100        9.0175700        15.280500
       185.44200        9.3352500        15.435500
       188.44200        9.6673900        15.592000
       191.48900        10.022500        15.750100
       194.58700        10.458300        15.879200
       197.73400        10.855800        15.918500
       200.93200        11.214500        15.957900
       204.18200        11.564600        15.997300
       207.48500        11.914300        16.036900
       210.84000        12.280200        16.075100
       214.25100        12.640200        16.066100
       217.71600        12.984600        16.049100
       221.23700        13.309700        16.025600
       224.81600        13.624000        16.002000
       228.45200        13.930800        15.978500
       232.14700        14.232300        15.955100
       235.90200        14.529900        15.931500
       239.71700        14.824800        15.908100
       243.59500        15.118400        15.884900
       247.53500        15.411800        15.861500
       251.53800        15.706100        15.838100
       255.60700        16.002500        15.814600
       259.74100        16.303000        15.791400
       263.94200        16.610200        15.768200
       268.21100        16.928600        15.745300
       272.54900        17.269100        15.722200
       276.95700        17.661600        15.654800
       281.43700        18.027900        15.532200
       285.98900        18.355800        15.375900
       290.61500        18.654700        15.216200
       295.31500        18.931100        15.058000
       300.09200        19.192800        14.901500
       304.94500        19.442300        14.746500
       309.87800        19.681600        14.593200
       314.89000        19.912000        14.441600
       319.98300        20.134600        14.291700
       325.15800        20.350500        14.143300
       330.41800        20.560200        13.996300
       335.76200        20.764100        13.850800
       341.19200        20.963400        13.707300
       346.71100        21.158500        13.564700
       352.31900        21.349400        13.423500
       358.01700        21.537000        13.284100
       363.80800        21.722300        13.146300
       369.69200        21.906000        13.009800
       375.67200        22.089200        12.874600
       381.74800        22.273800        12.740700
       387.92200        22.464200        12.604900
       394.19700        22.664200        12.463700
       400.57300        22.861800        12.293200
       407.05200        23.036400        12.112800
       413.63500        23.196200        11.934700
       420.32600        23.346200        11.759900
       427.12400        23.489100        11.587800
       434.03200        23.625500        11.417500
       441.05200        23.756700        11.250100
       448.18600        23.887400        11.084200
       455.43500        24.012300        10.915000
       462.80200        24.130700        10.744800
       470.28700        24.241500        10.575400
       477.89400        24.345800        10.408900
       485.62300        24.445200        10.244800
       493.47800        24.540100        10.083200
       501.45900        24.631000        9.9242100
       509.57000        24.718700        9.7680000
       517.81200        24.805100        9.6137300
       526.18700        24.889300        9.4596700
       534.69800        24.970400        9.3042800
       543.34600        25.046500        9.1495900
       552.13400        25.120900        8.9975700
       561.06500        25.192800        8.8399600
       570.13900        25.255800        8.6815400
       579.36100        25.311700        8.5274100
       588.73200        25.363200        8.3767000
       598.25400        25.411600        8.2290800
       607.93000        25.457200        8.0840400
       617.76300        25.500900        7.9415300
       627.75500        25.545300        7.8009600
       637.90800        25.589400        7.6560000
       648.22600        25.628700        7.5035000
       658.71100        25.653400        7.3474200
       669.36500        25.662800        7.1946000
       680.19100        25.659600        7.0611300
       691.19300        25.660800        6.9424800
       702.37200        25.675700        6.8288100
       713.73300        25.694500        6.7056000
       725.27700        25.704800        6.5768600
       737.00800        25.708900        6.4505000
       748.92800        25.708700        6.3266200
       761.04200        25.705300        6.2050700
       773.35100        25.699400        6.0851500
       785.85900        25.690600        5.9648800
       798.57000        25.675900        5.8448000
       811.48600        25.656100        5.7270800
       824.61100        25.631900        5.6117800
       837.94900        25.603700        5.4988700
       851.50200        25.571500        5.3876100
       865.27400        25.535000        5.2780100
       879.26900        25.493600        5.1701300
       893.49100        25.447500        5.0644200
       907.94300        25.396900        4.9609300
       922.62800        25.342800        4.8596100
       937.55100        25.283200        4.7568100
       952.71500        25.216900        4.6552600
       968.12400        25.143000        4.5550700
       983.78300        25.061700        4.4570600
       999.69500        24.972900        4.3611800
       1015.8600        24.876200        4.2674000
       1032.2900        24.771400        4.1756400
       1048.9900        24.657800        4.0850700
       1065.9600        24.533400        3.9956300
       1083.2000        24.397200        3.9079800
       1100.7200        24.248200        3.8222500
       1118.5200        24.084800        3.7384000
       1136.6100        23.905300        3.6564500
       1155.0000        23.707500        3.5763200
       1173.6800        23.488500        3.4979800
       1192.6600        23.244600        3.4212400
       1211.9500        22.971000        3.3462400
       1231.5500        22.661700        3.2729800
       1251.4700        22.308300        3.2013500
       1271.7200        21.899500        3.1314900
       1292.2900        21.418900        3.0633900
       1313.1900        20.841300        2.9966900
       1334.4300        20.125900        2.9314100
       1356.0100        19.200200        2.8675100
       1377.9400        17.915900        2.8051800
       1400.2300        15.883800        2.7441300
       1422.8800        11.242500        2.6842500
       1433.8000       -9.1606700        2.6561600
       1434.0000       -9.1537900        16.405500
       1445.8900        11.985900        16.234200
       1469.2800        16.935000        15.906700
       1493.0400        19.318900        15.585700
       1517.1900        20.899700        15.274000
       1541.7300        22.066200        14.968900
       1566.6700        22.961700        14.669900
       1592.0100        23.640700        14.376800
       1617.7600        24.083000        14.089700
       1643.9200        23.920000        13.808200
       1651.9000        21.500300        13.724400
       1652.1000        21.505900        15.600100
       1670.5100        25.065400        15.374400
       1697.5300        26.165000        15.053400
       1724.9900        26.956900        14.739100
       1752.8900        27.612100        14.418500
       1781.2400        28.175800        14.100400
       1810.0500        28.672200        13.786200
       1839.3200        29.115400        13.479000
       1869.0700        29.516300        13.178700
       1899.3000        29.881700        12.884900
       1930.0200        30.217000        12.598000
       1961.2400        30.526300        12.317400
       1992.9600        30.810200        12.042900
       2025.2000        31.085500        11.782400
       2057.9500        31.344000        11.509600
       2091.2400        31.578500        11.241200
       2125.0600        31.795400        10.977200
       2159.4300        31.996300        10.717900
       2194.3600        32.182700        10.463200
       2229.8500        32.355700        10.213200
       2265.9200        32.516500        9.9677400
       2302.5700        32.665500        9.7267600
       2339.8100        32.804000        9.4908200
       2377.6600        32.932500        9.2590200
       2416.1100        33.051500        9.0319900
       2455.1900        33.161600        8.8094900
       2494.9000        33.263900        8.5918500
       2535.2600        33.358200        8.3781800
       2576.2600        33.445300        8.1693200
       2617.9300        33.525700        7.9648400
       2660.2700        33.599700        7.7645100
       2703.3000        33.667700        7.5686900
       2747.0300        33.729900        7.3769500
       2791.4600        33.786700        7.1895300
       2836.6100        33.838500        7.0065000
       2882.4900        33.885800        6.8274100
       2929.1100        33.928600        6.6522200
       2976.4800        33.966900        6.4809200
       3024.6300        34.001200        6.3137800
       3073.5500        34.031900        6.1506900
       3123.2600        34.059300        5.9912600
       3173.7800        34.083100        5.8353200
       3225.1100        34.103800        5.6832500
       3277.2700        34.121600        5.5347900
       3330.2800        34.136600        5.3897900
       3384.1500        34.149000        5.2483300
       3438.8800        34.158900        5.1103200
       3494.5000        34.166500        4.9755800
       3551.0200        34.171900        4.8441800
       3608.4600        34.175200        4.7159800
       3666.8200        34.176600        4.5909600
       3726.1300        34.176200        4.4689800
       3786.4000        34.174100        4.3500500
       3847.6400        34.170300        4.2341300
       3909.8700        34.165100        4.1210600
       3973.1100        34.158500        4.0108600
       4037.3800        34.150500        3.9033900
       4102.6800        34.141200        3.7987100
       4169.0300        34.130800        3.6966400
       4236.4600        34.119400        3.5972100
       4304.9800        34.106800        3.5002900
       4374.6200        34.093300        3.4058900
       4445.3700        34.079000        3.3139000
       4517.2700        34.063700        3.2242600
       4590.3300        34.047700        3.1369900
       4664.5800        34.031000        3.0519500
       4740.0300        34.013600        2.9691500
       4816.6900        33.995500        2.8884600
       4894.6000        33.976800        2.8098700
       4973.7700        33.957600        2.7334000
       5054.2100        33.937800        2.6589500
       5135.9600        33.917600        2.5864000
       5219.0300        33.896900        2.5157500
       5303.4400        33.875700        2.4469900
       5389.2200        33.854100        2.3800400
       5476.3900        33.832200        2.3149000
       5564.9700        33.809900        2.2513900
       5654.9800        33.787200        2.1896200
       5746.4400        33.764100        2.1295200
       5839.3900        33.740800        2.0710500
       5933.8300        33.717200        2.0141100
       6029.8100        33.693300        1.9587200
       6127.3300        33.669000        1.9047400
       6226.4400        33.644500        1.8522600
       6327.1500        33.619700        1.8011200
       6429.4800        33.594600        1.7514200
       6533.4800        33.569200        1.7030900
       6639.1500        33.543600        1.6559400
       6746.5400        33.517500        1.6101200
       6855.6500        33.491200        1.5656000
       6966.5400        33.464600        1.5221900
       7079.2200        33.437700        1.4800500
       7193.7200        33.410400        1.4389500
       7310.0700        33.382600        1.3989700
       7428.3100        33.354500        1.3601100
       7548.4500        33.325900        1.3222900
       7670.5400        33.296800        1.2855000
       7794.6100        33.267200        1.2497000
       7920.6800        33.237000        1.2148700
       8048.7900        33.206100        1.1809800
       8178.9800        33.174600        1.1480100
       8311.2600        33.142300        1.1159500
       8445.6900        33.109100        1.0847500
       8582.2900        33.075000        1.0543900
       8721.1100        33.039900        1.0248600
       8862.1600        33.003500       0.99611900
       9005.5000        32.965900       0.96817300
       9151.1600        32.926700       0.94097400
       9299.1700        32.885900       0.91452400
       9449.5800        32.843100       0.88879100
       9602.4200        32.798200       0.86375300
       9757.7300        32.750800       0.83940100
       9915.5500        32.700500       0.81570800
       10075.900        32.646900       0.79265400
       10238.900        32.589300       0.77022700
       10404.500        32.527100       0.74840800
       10572.800        32.459300       0.72718000
       10743.800        32.384800       0.70652800
       10917.600        32.302000       0.68643500
       11094.200        32.208800       0.66688600
       11273.600        32.102300       0.64786600
       11455.900        31.977900       0.62936100
       11641.200        31.829100       0.61135700
       11829.500        31.644600       0.59383900
       12020.800        31.403900       0.57679500
       12215.300        31.062300       0.56021000
       12412.800        30.490200       0.54407300
       12613.600        28.750800       0.52837100
       12657.700        22.312500       0.52501700
       12657.900        22.312800        3.8581100
       12817.600        30.218200        3.7851900
       13025.000        31.158200        3.6939000
       13235.600        31.681400        3.6042000
       13449.700        32.047800        3.5160800
       13667.200        32.329700        3.4295600
       13888.300        32.558200        3.3446300
       14112.900        32.749500        3.2613200
       14341.200        32.913200        3.1796000
       14573.100        33.055500        3.0994800
       14808.900        33.180600        3.0209600
       15048.400        33.291700        2.9440300
       15291.800        33.390900        2.8686800
       15539.100        33.480000        2.7949000
       15790.400        33.560500        2.7226700
       16045.800        33.633300        2.6519900
       16305.400        33.699400        2.5828300
       16569.100        33.759600        2.5152000
       16837.100        33.814400        2.4490500
       17109.400        33.864500        2.3843900
       17386.100        33.910200        2.3211900
       17667.400        33.952000        2.2594300
       17953.100        33.990100        2.1990900
       18243.500        34.025000        2.1401500
       18538.600        34.056900        2.0825900
       18838.400        34.086100        2.0264000
       19143.100        34.112600        1.9715400
       19452.700        34.136900        1.9179900
       19767.400        34.158900        1.8657400
       20087.100        34.178900        1.8147600
       20412.000        34.197100        1.7650200
       20742.100        34.213500        1.7165200
       21077.600        34.228400        1.6692100
       21418.500        34.241700        1.6230800
       21765.000        34.253600        1.5781100
       22117.000        34.264300        1.5342800
       22474.700        34.273700        1.4915500
       22838.200        34.282000        1.4499200
       23207.600        34.289300        1.4093500
       23583.000        34.295500        1.3698200
       23964.400        34.300900        1.3313200
       24352.000        34.305400        1.2938200
       24745.900        34.309100        1.2572900
       25146.200        34.312100        1.2217300
       25552.900        34.314400        1.1870900
       25966.200        34.316100        1.1533800
       26386.100        34.317200        1.1205500
       26812.900        34.317700        1.0886000
       27246.600        34.317700        1.0575000
       27687.300        34.317200        1.0272400
       28135.100        34.316300       0.99779000
       28590.200        34.314900       0.96913500
       29052.600        34.313200       0.94125500
       29522.500        34.311100       0.91413200
       30000.000        34.308700       0.88774800
       30400.000        34.288800       0.84714700
       30800.000        34.286800       0.82720200
       31200.000        34.284600       0.80797400
       31500.000        34.282800       0.79400400
       31900.000        34.280300       0.77579700
       32300.000        34.277800       0.75822700
       32600.000        34.275700       0.74544900
       33000.000        34.273000       0.72892200
       33400.000        34.270100       0.71289700
       33800.000        34.267200       0.69740900
       34100.000        34.265000       0.68613100
       34500.000        34.262000       0.67152600
       34900.000        34.259000       0.65739400
       35300.000        34.255900       0.64366400
       35700.000        34.252800       0.63035400
       36030.000        34.250300       0.61968900
       36500.000        34.246700       0.60497200
       37000.000        34.242800       0.58989900
       37500.000        34.238900       0.57539600
       38000.000        34.235000       0.56143400
       38500.000        34.231200       0.54783300
       39000.000        34.227300       0.53472900
       39500.000        34.223400       0.52210100
       40000.000        34.219600       0.50992300
       40800.000        34.213500       0.49123300
       41500.000        34.208100       0.47572400
       42300.000        34.202200       0.45890000
       43000.000        34.197000       0.44491500
       43800.000        34.191200       0.42965800
       44500.000        34.186200       0.41695400
       45300.000        34.180600       0.40308700
       46000.000        34.175800       0.39146800
       46500.000        34.172400       0.38347800
       47000.000        34.169100       0.37573400
       47500.000        34.165700       0.36822700
       48000.000        34.162400       0.36094500
       48500.000        34.159200       0.35384300
       49000.000        34.156000       0.34695200
       49500.000        34.152900       0.34026400
       50000.000        34.149800       0.33376900
       50500.000        34.146800       0.32743200
       51000.000        34.143800       0.32127500
       51500.000        34.140700       0.31529300
       52000.000        34.137700       0.30947900
       52500.000        34.134900       0.30382500
       53000.000        34.132100       0.29832800
       53500.000        34.129200       0.29298000
       54000.000        34.126400       0.28777600
       55000.000        34.121100       0.27778100
       56000.000        34.115700       0.26822600
       56800.000        34.111700       0.26093600
       57530.000        34.107900       0.25454300
       58000.000        34.105600       0.25055200
       58500.000        34.103200       0.24640900
       59540.000        34.098200       0.23811700
       59800.000        34.097000       0.23611000
       60000.000        34.096100       0.23458300
       60800.000        34.092500       0.22859200
       61500.000        34.089300       0.22353700
       62300.000        34.085900       0.21796400
       63000.000        34.082800       0.21325800
       64000.000        34.078700       0.20679700
       65000.000        34.074600       0.20062800
       65900.000        34.071100       0.19527800
       66830.000        34.067500       0.18997200
       67400.000        34.065400       0.18682800
       68000.000        34.063100       0.18360100
       69000.000        34.059500       0.17840800
       70000.000        34.056000       0.17343300
       71000.000        34.052600       0.16864600
       72000.000        34.049200       0.16405400
       72800.000        34.046700       0.16051600
       73500.000        34.044500       0.15751300
       74200.000        34.042300       0.15459400
       74960.000        34.039900       0.15151600
       75500.000        34.038300       0.14937700
       76000.000        34.036800       0.14743600
       77110.000        34.033600       0.14326000
       78600.000        34.029400       0.13792900
       79300.000        34.027500       0.13552600
       80000.000        34.025600       0.13318700
       80800.000        34.023600       0.13057200
       81500.000        34.021800       0.12834700
       82300.000        34.019800       0.12587300
       83000.000        34.018000       0.12376700
       84000.000        34.015600       0.12084900
       85000.000        34.013200       0.11803200
       86500.000        34.009800       0.11398500
       88000.000        34.006500       0.11014300
       89000.000        34.004300       0.10768900
       90000.000        34.002200       0.10531500
       91500.000        33.999300       0.10188400
       93000.000        33.996300      0.098616800
       94000.000        33.994400      0.096525500
       95000.000        33.992500      0.094499900
       96500.000        33.989900      0.091580100
       98000.000        33.987200      0.088793500
       99000.000        33.985600      0.087005800
       99500.000        33.984700      0.086132200
       100000.00        33.983900      0.085271600
