;  Atomic scattering factors for Sm.
;   
;  Concatenation of data from CXRO <http://www-cxro.lbl.gov>
;  and LLNL <http://www-phys.llnl.gov/V_Div/scattering/asf.html>
;  
;  E (eV) f1 f2
;---------------
       10.000000       -9999.0000       0.18764300
       10.161700       -9999.0000       0.19533600
       10.326100       -9999.0000       0.20334500
       10.493100       -9999.0000       0.21168100
       10.662800       -9999.0000       0.22036000
       10.835300       -9999.0000       0.22939400
       11.010600       -9999.0000       0.23879900
       11.188600       -9999.0000       0.24858900
       11.369600       -9999.0000       0.25878100
       11.553500       -9999.0000       0.26939100
       11.740400       -9999.0000       0.28043500
       11.930300       -9999.0000       0.29193300
       12.123200       -9999.0000       0.30390200
       12.319300       -9999.0000       0.31512200
       12.518600       -9999.0000       0.32609100
       12.721000       -9999.0000       0.33744200
       12.926800       -9999.0000       0.34918700
       13.135900       -9999.0000       0.36134200
       13.348300       -9999.0000       0.37391900
       13.564200       -9999.0000       0.38693400
       13.783600       -9999.0000       0.39980600
       14.006600       -9999.0000       0.41159100
       14.233100       -9999.0000       0.42372300
       14.463300       -9999.0000       0.43621300
       14.697300       -9999.0000       0.44907100
       14.935000       -9999.0000       0.46230800
       15.176500       -9999.0000       0.47593600
       15.422000       -9999.0000       0.48890200
       15.671400       -9999.0000       0.50111200
       15.924900       -9999.0000       0.51362600
       16.182500       -9999.0000       0.52645300
       16.444200       -9999.0000       0.53960000
       16.710200       -9999.0000       0.55307500
       16.980500       -9999.0000       0.56684100
       17.255100       -9999.0000       0.57976000
       17.534200       -9999.0000       0.59297200
       17.817800       -9999.0000       0.60648600
       18.106000       -9999.0000       0.62030800
       18.398900       -9999.0000       0.63444500
       18.696400       -9999.0000       0.65306300
       18.998800       -9999.0000       0.67614300
       19.306100       -9999.0000       0.70003900
       19.618400       -9999.0000       0.72478000
       19.935700       -9999.0000       0.78405600
       20.258200       -9999.0000       0.88333200
       20.585800       -9999.0000        1.0909300
       20.918800       -9999.0000        1.4685300
       21.257100       -9999.0000        1.6701000
       21.600900       -9999.0000        1.6947100
       21.950300       -9999.0000        1.7196700
       22.305300       -9999.0000        1.8624200
       22.666100       -9999.0000        2.3673200
       23.032700       -9999.0000        2.7852700
       23.405300       -9999.0000        2.9328000
       23.783800       -9999.0000        2.7604600
       24.168500       -9999.0000        3.2528000
       24.559400       -9999.0000        6.0972000
       24.956600       -9999.0000        6.8593100
       25.360300       -9999.0000        8.3955700
       25.770500       -9999.0000        9.5292000
       26.187300       -9999.0000        10.440900
       26.610900       -9999.0000        11.080200
       27.041300       -9999.0000        11.415000
       27.478600       -9999.0000        11.626100
       27.923100       -9999.0000        11.841000
       28.374700       -9999.0000        12.060000
       28.833700       -9999.0000        12.125100
       29.300000        3.6798900        12.173200
       29.773900        4.4848100        12.221500
       30.255500        5.2974700        11.846200
       30.744900        5.7882300        11.418000
       31.242100        6.1302500        11.139200
       31.747500        6.4522600        10.877300
       32.260900        6.7263100        10.623600
       32.782700        6.9740800        10.424500
       33.313000        7.2159500        10.229200
       33.851800        7.4500100        10.037400
       34.399300        7.6694400        9.8150800
       34.955700        7.8331400        9.5873400
       35.521100        7.9581500        9.3944700
       36.095600        8.0651700        9.2113600
       36.679400        8.1278400        9.0571000
       37.272700        8.2130100        8.9538900
       37.875500        8.3145400        8.8518800
       38.488200        8.4255500        8.7510000
       39.110700        8.5346900        8.6226100
       39.743200        8.6210100        8.4923800
       40.386100        8.6886400        8.3641200
       41.039300        8.7385300        8.2451100
       41.703100        8.7794000        8.1321300
       42.377600        8.8039000        8.0207000
       43.063000        8.7997200        7.9107900
       43.759500        8.7534500        7.8561800
       44.467300        8.7467200        7.8399100
       45.186500        8.7502100        7.8236500
       45.917400        8.7468500        7.8241400
       46.660000        8.7663400        7.8395900
       47.414700        8.7987200        7.8550600
       48.181600        8.8379800        7.8705600
       48.960900        8.8824600        7.8861000
       49.752800        8.9310400        7.9016600
       50.557600        8.9829600        7.9172600
       51.375300        9.0376900        7.9328900
       52.206200        9.0948800        7.9485400
       53.050600        9.1542900        7.9642400
       53.908700        9.2157600        7.9799500
       54.780600        9.2792600        7.9957100
       55.666700        9.3448500        8.0114900
       56.567000        9.4127100        8.0273000
       57.482000        9.4831700        8.0431400
       58.411700        9.5568200        8.0590200
       59.356400        9.6346800        8.0749300
       60.316500        9.7186900        8.0908600
       61.292100        9.8134200        8.1068300
       62.283400        9.9358300        8.1225800
       63.290800        10.053800        8.0648600
       64.314500        10.142000        8.0075500
       65.354700        10.212100        7.9506600
       66.411800        10.271200        7.8941600
       67.485900        10.321000        7.8380600
       68.577500        10.362600        7.7823700
       69.686700        10.396500        7.7270700
       70.813800        10.423100        7.6721600
       71.959100        10.442400        7.6176500
       73.123000        10.454500        7.5635200
       74.305700        10.459200        7.5097700
       75.507600        10.456000        7.4564100
       76.728900        10.444200        7.4034300
       77.969900        10.420600        7.3508200
       79.231000        10.390400        7.3112500
       80.512500        10.358300        7.2723100
       81.814700        10.322100        7.2335700
       83.138000        10.280300        7.1950500
       84.482700        10.232700        7.1567200
       85.849100        10.180300        7.1186100
       87.237700        10.128800        7.0806900
       88.648700        10.065800        7.0200900
       90.082500        9.9824700        6.9591400
       91.539500        9.8834200        6.8987100
       93.020100        9.7701500        6.8388000
       94.524600        9.6439500        6.7794200
       96.053500        9.5085400        6.7205500
       97.607100        9.3813600        6.6521900
       99.185800        9.2140000        6.5265700
       100.79000        8.9991000        6.4033200
       102.42000        8.7461600        6.2824000
       104.07700        8.4661900        6.1637600
       105.76000        8.1892300        6.0473600
       107.47100        7.9831500        5.7674900
       109.20900        7.4776900        5.3124200
       110.97500        6.7425400        4.8932600
       112.77000        5.7822400        4.5648000
       114.59400        4.6899600        4.3117300
       116.44800        3.3991100        4.0833100
       118.33100        1.8432300        3.8813800
       120.24500      -0.12676300        3.6894200
       122.19000       -2.6975400        3.6175200
       124.16600       -6.6611000        3.6064900
       126.17500       -11.918100        5.7412900
       128.21500       -17.728800        10.051000
       130.28900       -24.093300        17.713900
       132.39700       -29.482600        40.643700
       134.53800       -14.493200        61.657300
       136.71400        11.359600        48.303300
       138.92500        13.424900        38.567300
       141.17200        13.139900        39.277400
       143.45600        18.522000        38.931400
       145.77600        20.903100        34.805600
       148.13400        21.981300        32.847400
       150.53000        23.175600        31.134400
       152.96400        24.221300        29.510800
       155.43900        25.085700        27.971800
       157.95300        25.776700        26.513100
       160.50700        26.305500        25.130500
       163.10300        26.670700        23.819900
       165.74200        26.750600        22.675900
       168.42200        26.892400        21.789200
       171.14600        27.075800        20.937300
       173.91500        27.227200        20.118600
       176.72700        27.337800        19.332000
       179.58600        27.398600        18.576100
       182.49100        27.376700        17.849800
       185.44200        27.286000        17.256000
       188.44200        27.247500        16.748000
       191.48900        27.223700        16.255000
       194.58700        27.194000        15.776500
       197.73400        27.149100        15.312000
       200.93200        27.080900        14.861300
       204.18200        26.975800        14.423800
       207.48500        26.770400        14.058100
       210.84000        26.623400        13.799100
       214.25100        26.521800        13.545000
       217.71600        26.423300        13.295500
       221.23700        26.317100        13.050600
       224.81600        26.187300        12.810200
       228.45200        25.958100        12.636300
       232.14700        25.806000        12.577300
       235.90200        25.721800        12.518600
       239.71700        25.660700        12.460200
       243.59500        25.615900        12.402000
       247.53500        25.582200        12.344100
       251.53800        25.555800        12.286500
       255.60700        25.532900        12.229200
       259.74100        25.508500        12.172100
       263.94200        25.466800        12.122800
       268.21100        25.441700        12.110300
       272.54900        25.432300        12.097700
       276.95700        25.431800        12.085200
       281.43700        25.435600        12.072600
       285.98900        25.440600        12.060100
       290.61500        25.443400        12.047600
       295.31500        25.437700        12.035100
       300.09200        25.402200        12.022600
       304.94500        25.356500        12.090300
       309.87800        25.353000        12.184500
       314.89000        25.385700        12.279400
       319.98300        25.437900        12.375000
       325.15800        25.507400        12.471400
       330.41800        25.593600        12.568600
       335.76200        25.697400        12.666500
       341.19200        25.825900        12.765100
       346.71100        25.974400        12.835300
       352.31900        26.116900        12.893800
       358.01700        26.262500        12.959200
       363.80800        26.420500        13.025000
       369.69200        26.602100        13.091100
       375.67200        26.805300        13.131700
       381.74800        27.002800        13.152400
       387.92200        27.204500        13.173100
       394.19700        27.460200        13.193800
       400.57300        27.701700        13.109500
       407.05200        27.895400        13.020600
       413.63500        28.066500        12.932200
       420.32600        28.222700        12.844400
       427.12400        28.367000        12.757300
       434.03200        28.501300        12.670700
       441.05200        28.626600        12.584700
       448.18600        28.741400        12.499300
       455.43500        28.845100        12.420400
       462.80200        28.949000        12.350100
       470.28700        29.052000        12.280100
       477.89400        29.152600        12.210600
       485.62300        29.250500        12.141500
       493.47800        29.345700        12.072800
       501.45900        29.438400        12.004500
       509.57000        29.528800        11.936500
       517.81200        29.617200        11.869000
       526.18700        29.704800        11.801800
       534.69800        29.794500        11.735000
       543.34600        29.885800        11.657300
       552.13400        29.970500        11.573500
       561.06500        30.047100        11.482500
       570.13900        30.112400        11.388600
       579.36100        30.168100        11.296900
       588.73200        30.216900        11.206300
       598.25400        30.259800        11.116900
       607.93000        30.297000        11.028200
       617.76300        30.329400        10.940200
       627.75500        30.359700        10.852300
       637.90800        30.386300        10.757600
       648.22600        30.404400        10.652900
       658.71100        30.403500        10.542200
       669.36500        30.382700        10.432700
       680.19100        30.344000        10.340000
       691.19300        30.304400        10.260100
       702.37200        30.274100        10.182700
       713.73300        30.241400        10.089100
       725.27700        30.188400        9.9848400
       737.00800        30.117700        9.8815200
       748.92800        30.031600        9.7793100
       761.04200        29.931000        9.6780200
       773.35100        29.816600        9.5759800
       785.85900        29.685400        9.4686200
       798.57000        29.529000        9.3572200
       811.48600        29.347600        9.2473800
       824.61100        29.140600        9.1386700
       837.94900        28.906400        9.0311100
       851.50200        28.641700        8.9227700
       865.27400        28.341900        8.8132200
       879.26900        27.999400        8.7027900
       893.49100        27.609200        8.5937200
       907.94300        27.164200        8.4860400
       922.62800        26.656400        8.3797500
       937.55100        26.069600        8.2691800
       952.71500        25.384300        8.1584800
       968.12400        24.573500        8.0478700
       983.78300        23.600900        7.9390300
       999.69500        22.408900        7.8311200
       1015.8600        20.900300        7.7240900
       1032.2900        18.889500        7.6139300
       1048.9900        15.965000        7.5041100
       1065.9600        10.826500        7.3946000
       1083.2000       -23.692600        7.2866800
       1083.3000       -29.095300        7.2860600
       1083.5000       -29.092800        31.644500
       1100.7200        10.960400        31.627600
       1118.5200        16.582700        31.610400
       1136.6100        19.963800        31.593000
       1155.0000        22.438600        31.575700
       1173.6800        24.422500        31.558500
       1192.6600        26.099700        31.541000
       1211.9500        27.568300        31.523600
       1231.5500        28.887000        31.506300
       1251.4700        30.094100        31.489600
       1271.7200        31.216100        31.473200
       1292.2900        32.272500        31.457300
       1313.1900        33.278100        31.441600
       1334.4300        34.244500        31.425900
       1356.0100        35.181500        31.410000
       1377.9400        36.098100        31.394100
       1400.2300        37.004000        31.378300
       1422.8800        37.911100        31.362400
       1445.8900        38.843000        31.346900
       1469.2800        39.846000        31.268200
       1493.0400        40.928700        31.093500
       1517.1900        41.622900        30.520600
       1541.7300        41.790500        30.389000
       1566.6700        43.012500        31.161100
       1592.0100        44.518100        30.688300
       1617.7600        45.495800        30.036800
       1643.9200        46.265200        29.399100
       1670.5100        46.754300        28.775100
       1697.5300        46.973200        28.452800
       1724.9900        47.810200        28.669400
       1752.8900        48.852500        28.218800
       1781.2400        49.612900        27.630500
       1810.0500        50.256100        27.051600
       1839.3200        50.826800        26.484600
       1869.0700        51.344500        25.929300
       1899.3000        51.819100        25.385600
       1930.0200        52.257700        24.853600
       1961.2400        52.665100        24.332700
       1992.9600        53.041000        23.822600
       2025.2000        53.409000        23.335600
       2057.9500        53.756900        22.833400
       2091.2400        54.074100        22.339800
       2125.0600        54.369500        21.854900
       2159.4300        54.644400        21.378000
       2194.3600        54.900900        20.910200
       2229.8500        55.139700        20.450100
       2265.9200        55.361900        19.999000
       2302.5700        55.569200        19.556500
       2339.8100        55.762400        19.122100
       2377.6600        55.941800        18.695600
       2416.1100        56.108200        18.277400
       2455.1900        56.262400        17.867500
       2494.9000        56.405100        17.465500
       2535.2600        56.537000        17.071600
       2576.2600        56.658600        16.685600
       2617.9300        56.770300        16.307200
       2660.2700        56.873000        15.936700
       2703.3000        56.966400        15.573300
       2747.0300        57.051500        15.218000
       2791.4600        57.128600        14.869400
       2836.6100        57.198100        14.528700
       2882.4900        57.259900        14.194400
       2929.1100        57.315000        13.868100
       2976.4800        57.363800        13.548100
       3024.6300        57.406100        13.234900
       3073.5500        57.442000        12.927900
       3123.2600        57.471600        12.627900
       3173.7800        57.496000        12.334800
       3225.1100        57.515100        12.047600
       3277.2700        57.528800        11.766800
       3330.2800        57.537500        11.492000
       3384.1500        57.541400        11.223200
       3438.8800        57.540500        10.960300
       3494.5000        57.535000        10.703300
       3551.0200        57.525100        10.451900
       3608.4600        57.510800        10.206000
       3666.8200        57.492300        9.9656500
       3726.1300        57.469600        9.7306600
       3786.4000        57.442800        9.5008300
       3847.6400        57.411900        9.2762000
       3909.8700        57.377000        9.0565900
       3973.1100        57.338000        8.8419100
       4037.3800        57.295100        8.6321000
       4102.6800        57.248200        8.4270300
       4169.0300        57.197200        8.2264200
       4236.4600        57.142000        8.0305200
       4304.9800        57.082600        7.8389100
       4374.6200        57.018800        7.6517400
       4445.3700        56.950500        7.4687700
       4517.2700        56.877400        7.2899400
       4590.3300        56.799500        7.1152700
       4664.5800        56.716400        6.9444100
       4740.0300        56.627700        6.7775200
       4816.6900        56.533100        6.6144300
       4894.6000        56.432200        6.4549900
       4973.7700        56.324400        6.2993400
       5054.2100        56.209100        6.1471600
       5135.9600        56.085400        5.9983700
       5219.0300        55.952500        5.8530300
       5303.4400        55.809200        5.7110400
       5389.2200        55.654200        5.5723200
       5476.3900        55.485800        5.4366600
       5564.9700        55.301800        5.3042200
       5654.9800        55.099600        5.1746800
       5746.4400        54.875700        5.0482800
       5839.3900        54.625500        4.9245700
       5933.8300        54.342700        4.8037800
       6029.8100        54.018400        4.6857500
       6127.3300        53.639500        4.5701800
       6226.4400        53.185200        4.4574400
       6327.1500        52.620500        4.3472800
       6429.4800        51.876800        4.2396500
       6533.4800        50.789200        4.1343900
       6639.1500        48.728500        4.0316800
       6716.1000        32.868200        3.9595000
       6716.3000        32.869300        11.487600
       6746.5400        46.600500        11.389000
       6855.6500        50.196400        11.043500
       6966.5400        51.379600        10.708300
       7079.2200        51.865500        10.383300
       7193.7200        51.745600        10.068100
       7310.0700        47.229600        9.7623900
       7311.7000        43.822900        9.7582300
       7311.9000        43.824200        13.524300
       7428.3100        52.675200        13.128100
       7548.4500        53.694500        12.737500
       7670.5400        53.995300        12.358400
       7736.7000        50.867600        12.160100
       7736.9000        50.870500        13.921700
       7794.6100        54.529400        13.775400
       7920.6800        55.717400        13.464600
       8048.7900        56.484300        13.157800
       8178.9800        57.092200        12.855800
       8311.2600        57.604600        12.558300
       8445.6900        58.049200        12.265400
       8582.2900        58.441300        11.976800
       8721.1100        58.791000        11.693100
       8862.1600        59.105600        11.414500
       9005.5000        59.390300        11.140500
       9151.1600        59.648600        10.871200
       9299.1700        59.883800        10.606900
       9449.5800        60.098800        10.347700
       9602.4200        60.295500        10.093300
       9757.7300        60.475700        9.8436100
       9915.5500        60.640800        9.5991200
       10075.900        60.792500        9.3592700
       10238.900        60.931500        9.1242600
       10404.500        61.058900        8.8940800
       10572.800        61.175800        8.6686600
       10743.800        61.282900        8.4480000
       10917.600        61.380800        8.2320400
       11094.200        61.470400        8.0207400
       11273.600        61.552100        7.8140500
       11455.900        61.626400        7.6119200
       11641.200        61.694000        7.4142900
       11829.500        61.755200        7.2211100
       12020.800        61.810500        7.0323100
       12215.300        61.860300        6.8478500
       12412.800        61.904900        6.6676500
       12613.600        61.944600        6.4916500
       12817.600        61.979800        6.3197900
       13025.000        62.010700        6.1519900
       13235.600        62.037600        5.9882000
       13449.700        62.060800        5.8283400
       13667.200        62.080500        5.6723500
       13888.300        62.096900        5.5201600
       14112.900        62.110300        5.3716900
       14341.200        62.120800        5.2268800
       14573.100        62.128500        5.0856600
       14808.900        62.133800        4.9479600
       15048.400        62.136600        4.8137100
       15291.800        62.137300        4.6828400
       15539.100        62.135900        4.5552800
       15790.400        62.132500        4.4309700
       16045.800        62.127300        4.3098400
       16305.400        62.120400        4.1918100
       16569.100        62.111900        4.0768300
       16837.100        62.102000        3.9648200
       17109.400        62.090600        3.8557300
       17386.100        62.078000        3.7494900
       17667.400        62.064100        3.6460200
       17953.100        62.049100        3.5452800
       18243.500        62.033100        3.4472000
       18538.600        62.016100        3.3517200
       18838.400        61.998100        3.2587700
       19143.100        61.979400        3.1683000
       19452.700        61.959800        3.0802500
       19767.400        61.939400        2.9945600
       20087.100        61.918400        2.9111800
       20412.000        61.896800        2.8300400
       20742.100        61.874500        2.7511000
       21077.600        61.851700        2.6743000
       21418.500        61.828300        2.5996000
       21765.000        61.804500        2.5269200
       22117.000        61.780200        2.4562400
       22474.700        61.755500        2.3874900
       22838.200        61.730300        2.3206300
       23207.600        61.704800        2.2556100
       23583.000        61.678900        2.1923800
       23964.400        61.652600        2.1309000
       24352.000        61.626000        2.0711200
       24745.900        61.599000        2.0130000
       25146.200        61.571800        1.9565000
       25552.900        61.544100        1.9015700
       25966.200        61.516200        1.8481700
       26386.100        61.487900        1.7962700
       26812.900        61.459300        1.7458200
       27246.600        61.430400        1.6967800
       27687.300        61.401000        1.6491200
       28135.100        61.371300        1.6028100
       28590.200        61.341300        1.5577900
       29052.600        61.311100        1.5140500
       29522.500        61.284300        1.4715400
       30000.000        61.235600        1.4302400
       30400.000        61.107800        1.3163600
       30800.000        61.082700        1.2859100
       31200.000        61.057200        1.2565500
       31500.000        61.038000        1.2352100
       31900.000        61.012200        1.2076300
       32300.000        60.986300        1.1809900
       32600.000        60.966500        1.1616100
       33000.000        60.940200        1.1365200
       33400.000        60.913200        1.1121900
       33800.000        60.886300        1.0886600
       34100.000        60.865500        1.0715100
       34500.000        60.837700        1.0493000
       34900.000        60.809300        1.0277900
       35300.000        60.780400        1.0069100
       35700.000        60.750700       0.98666900
       36030.000        60.725800       0.97043900
       36500.000        60.689300       0.94803100
       37000.000        60.649100       0.92506300
       37500.000        60.607400       0.90294900
       38000.000        60.564000       0.88164500
       38500.000        60.518400       0.86111400
       38800.000        60.490000       0.84923500
       39000.000        60.470600       0.84131600
       39300.000        60.440600       0.82985700
       39500.000        60.420000       0.82221700
       39800.000        60.388100       0.81115700
       40000.000        60.366200       0.80378300
       40400.000        60.320500       0.78961300
       40800.000        60.271900       0.77544300
       41100.000        60.233500       0.76535200
       41300.000        60.206700       0.75862400
       41500.000        60.179000       0.75189700
       41700.000        60.150300       0.74550300
       41900.000        60.120400       0.73910800
       42100.000        60.089200       0.73271400
       42300.000        60.056700       0.72632000
       42450.000        60.031400       0.72175800
       42600.000        60.005200       0.71719500
       42800.000        59.968700       0.71111200
       43000.000        59.930300       0.70502900
       43200.000        59.889900       0.69921400
       43400.000        59.847000       0.69340000
       43600.000        59.801500       0.68758500
       43800.000        59.753000       0.68177100
       43950.000        59.714400       0.67761600
       44100.000        59.673600       0.67346100
       44200.000        59.645100       0.67069100
       44300.000        59.615500       0.66792100
       44400.000        59.584600       0.66515100
       44500.000        59.552400       0.66238100
       44600.000        59.518700       0.65973900
       44700.000        59.483400       0.65709800
       44800.000        59.446400       0.65445600
       44900.000        59.407400       0.65181400
       45000.000        59.366300       0.64917300
       45100.000        59.322800       0.64653100
       45200.000        59.276700       0.64389000
       45300.000        59.227500       0.64124800
       45380.000        59.185700       0.63923100
       45450.000        59.147200       0.63746600
       45530.000        59.100700       0.63545000
       45600.000        59.057500       0.63368500
       45650.000        59.025200       0.63242400
       45700.000        58.991400       0.63116400
       45750.000        58.956100       0.62990300
       45800.000        58.919100       0.62864300
       45850.000        58.880200       0.62738200
       45900.000        58.839300       0.62612200
       45950.000        58.796200       0.62486100
       46000.000        58.750600       0.62360100
       46020.000        58.731600       0.62311100
       46050.000        58.702200       0.62237500
       46100.000        58.650600       0.62114900
       46150.000        58.595600       0.61992300
       46200.000        58.536300       0.61869700
       46250.000        58.472400       0.61748600
       46300.000        58.403000       0.61627500
       46320.000        58.373500       0.61579100
       46350.000        58.327200       0.61506400
       46380.000        58.278000       0.61433700
       46400.000        58.243500       0.61385300
       46430.000        58.188900       0.61314100
       46450.000        58.150300       0.61266700
       46480.000        58.088900       0.61195500
       46500.000        58.045300       0.61148000
       46520.000        57.999200       0.61100600
       46550.000        57.925000       0.61029400
       46580.000        57.843500       0.60958200
       46590.000        57.814400       0.60934500
       46600.000        57.784300       0.60910700
       46620.000        57.720800       0.60863300
       46640.000        57.652000       0.60815800
       46655.000        57.596400       0.60780200
       46670.000        57.537000       0.60744600
       46685.000        57.473100       0.60709100
       46700.000        57.403900       0.60673500
       46710.000        57.354500       0.60649700
       46720.000        57.302100       0.60626000
       46730.000        57.246200       0.60602300
       46740.000        57.186500       0.60578600
       46747.000        57.142000       0.60561900
       46755.000        57.088200       0.60543000
       46763.000        57.030800       0.60524000
       46770.000        56.977200       0.60507400
       46780.000        56.894400       0.60483600
       46790.000        56.802800       0.60459900
       46795.000        56.753000       0.60448000
       46800.000        56.700200       0.60436200
       46805.000        56.644100       0.60424300
       46810.000        56.584100       0.60412500
       46815.000        56.519500       0.60400600
       46820.000        56.449800       0.60388700
       46825.000        56.374000       0.60376900
       46830.000        56.291100       0.60365000
       46835.000        56.199300       0.60353100
       46840.000        56.096700       0.60341300
       46843.000        56.028900       0.60334200
       46845.000        55.980500       0.60329400
       46847.000        55.929300       0.60324700
       46850.000        55.846500       0.60317500
       46852.000        55.786400       0.60312800
       46854.000        55.722000       0.60308100
       46856.000        55.652500       0.60303300
       46858.000        55.577000       0.60298600
       46860.000        55.494400       0.60293800
       46862.000        55.403000       0.60289100
       46863.500        55.327800       0.60285500
       46865.000        55.245300       0.60282000
       46867.000        55.121800       0.60277200
       46868.000        55.052800       0.60274800
       46869.000        54.977700       0.60272500
       46870.000        54.896100       0.60270100
       46871.000        54.805600       0.60267700
       46872.000        54.705200       0.60265300
       46873.000        54.591200       0.60263000
       46874.000        54.460700       0.60260600
       46875.000        54.307100       0.60258200
       46876.000        54.122500       0.60255900
       46877.000        53.889000       0.60253500
       46877.500        53.746100       0.60252300
       46878.000        53.576800       0.60251100
       46878.500        53.371000       0.60249900
       46879.000        53.110000       0.60248700
       46879.400        52.841200       0.60247800
       46879.800        52.482900       0.60246800
       46880.700        50.855500       0.60244700
       46880.700        50.843900       0.60244700
       46880.800        51.113700        1.5782400
       46880.900        51.371400        2.5540200
       46881.200        52.131000        5.4813900
       46881.600        53.096000        9.3845400
       46882.600        54.906000       0.60240300
       46882.600        54.884000       0.60240200
       46882.700        54.502800       0.60240000
       46883.200        54.255400       0.60238800
       46883.600        54.265700        5.4616500
       46884.100        54.425700       0.78086200
       46884.600        54.518700        1.1704200
       46885.300        53.597100        2.2231100
       46886.000        53.627100        3.4343800
       46886.500        53.958500        3.4285600
       46887.000        54.316100        3.4227300
       46887.500        54.442600        3.4168700
       46888.000        54.543500        3.4110200
       46888.500        54.626700        3.4053900
       46889.000        54.698900        3.3997500
       46889.500        54.763000        3.3941200
       46890.000        54.821500        3.3884900
       46890.500        54.873300        3.3836700
       46891.000        54.921700        3.3788500
       46891.500        54.966500        3.3740200
       46892.000        55.008800        3.3692000
       46892.500        55.047400        3.3655500
       46893.000        55.084200        3.3619000
       46893.500        55.119000        3.3582500
       46894.000        55.151900        3.3546000
       46895.000        55.212800        3.3499900
       46896.000        55.268400        3.3453800
       46897.000        55.319300        3.3433500
       46898.000        55.367200        3.3413200
       46899.000        55.411700        3.3412600
       46900.000        55.453400        3.3412100
       46901.500        55.513100        3.3439200
       46903.000        55.569200        3.3466300
       46904.000        55.604300        3.3495500
       46905.000        55.638800        3.3524600
       46908.000        55.736600        3.3627700
       46910.000        55.798400        3.3696500
       46913.000        55.885700        3.3782900
       46915.000        55.941600        3.3840500
       46917.000        55.995300        3.3871300
       46920.000        56.071100        3.3917500
       46923.000        56.142300        3.3923900
       46925.000        56.187100        3.3928200
       46928.000        56.250000        3.3907100
       46930.000        56.289300        3.3893100
       46931.500        56.317400        3.3876400
       46932.300        56.331900        3.3867500
       46933.000        56.356100        3.3859700
       46933.500        56.353100        3.3854200
       46934.000        56.361700        3.3848600
       46934.500        56.370200        3.3843100
       46935.000        56.378700        3.3837500
       46936.500        56.403300        3.3822300
       46938.000        56.427200        3.3807100
       46940.000        56.457400        3.3786800
       46945.000        56.528500        3.3754500
       46950.000        56.592800        3.3722100
       46955.000        56.652200        3.3722900
       46960.000        56.708600        3.3723700
       46965.000        56.762000        3.3736800
       46970.000        56.813500        3.3749800
       46980.000        56.910100        3.3761800
       46985.000        56.955300        3.3755100
       46990.000        56.998100        3.3748300
       46995.000        57.038700        3.3734700
       47000.000        57.076800        3.3721100
       47010.000        57.148500        3.3713100
       47020.000        57.215300        3.3705200
       47030.000        57.277700        3.3697200
       47040.000        57.336100        3.3689200
       47050.000        57.391000        3.3681200
       47060.000        57.442900        3.3673100
       47070.000        57.492000        3.3665100
       47080.000        57.538700        3.3657000
       47090.000        57.583100        3.3648900
       47100.000        57.625600        3.3640900
       47120.000        57.705300        3.3624800
       47140.000        57.778800        3.3603300
       47160.000        57.846700        3.3581800
       47180.000        57.910000        3.3560200
       47200.000        57.969100        3.3538700
       47230.000        58.051400        3.3508700
       47250.000        58.102500        3.3488800
       47270.000        58.151100        3.3468800
       47300.000        58.219500        3.3438900
       47320.000        58.262500        3.3418900
       47350.000        58.323600        3.3388900
       47380.000        58.381100        3.3359000
       47400.000        58.417600        3.3339000
       47430.000        58.469900        3.3308500
       47450.000        58.503300        3.3288100
       47480.000        58.551200        3.3257600
       47500.000        58.581900        3.3237200
       47550.000        58.654800        3.3186300
       47600.000        58.723000        3.3135400
       47650.000        58.786800        3.3074000
       47700.000        58.846000        3.3012500
       47750.000        58.901600        3.2951100
       47800.000        58.953400        3.2889700
       47850.000        59.002500        3.2840200
       47900.000        59.049600        3.2790700
       47950.000        59.094500        3.2741100
       48000.000        59.137400        3.2691600
       48050.000        59.178500        3.2646500
       48100.000        59.218200        3.2601400
       48150.000        59.256500        3.2556300
       48200.000        59.293500        3.2511200
       48300.000        59.364000        3.2421400
       48400.000        59.430800        3.2331600
       48500.000        59.493800        3.2226800
       48600.000        59.553100        3.2122000
       48700.000        59.608900        3.2005000
       48800.000        59.661100        3.1888100
       48900.000        59.710300        3.1773400
       49000.000        59.756900        3.1658700
       49100.000        59.801000        3.1544000
       49200.000        59.842600        3.1429300
       49300.000        59.882300        3.1327900
       49400.000        59.920700        3.1226500
       49500.000        59.957800        3.1125100
       49600.000        59.993400        3.1023700
       49700.000        60.027700        3.0924400
       49800.000        60.060800        3.0825100
       49900.000        60.092600        3.0725800
       50000.000        60.123200        3.0626500
       50150.000        60.167300        3.0491000
       50300.000        60.209800        3.0355600
       50400.000        60.237200        3.0265300
       50500.000        60.263900        3.0175000
       50650.000        60.302700        3.0039600
       50800.000        60.340300        2.9904100
       50900.000        60.364600        2.9813800
       51000.000        60.388200        2.9723500
       51150.000        60.422400        2.9588400
       51300.000        60.455500        2.9453300
       51400.000        60.476900        2.9363200
       51500.000        60.498100        2.9273200
       51650.000        60.528900        2.9138000
       51800.000        60.558400        2.9002900
       51900.000        60.577500        2.8912900
       52000.000        60.596200        2.8822800
       52300.000        60.650200        2.8553900
       52400.000        60.667500        2.8464200
       52500.000        60.684400        2.8374600
       52650.000        60.708900        2.8240100
       52800.000        60.732700        2.8105700
       53000.000        60.763300        2.7926400
       53300.000        60.806600        2.7661700
       53500.000        60.834300        2.7485300
       53650.000        60.854200        2.7356300
       53800.000        60.873600        2.7227200
       53900.000        60.886100        2.7141200
       54000.000        60.897900        2.7055200
       54300.000        60.933900        2.6807900
       54500.000        60.956700        2.6643100
       54800.000        60.989500        2.6401800
       55000.000        61.010300        2.6241000
       55300.000        61.040400        2.6011400
       55500.000        61.059800        2.5858300
       55800.000        61.087800        2.5628700
       56000.000        61.105800        2.5475600
       56200.000        61.123200        2.5329500
       56400.000        61.140100        2.5183300
       56600.000        61.156400        2.5037200
       56800.000        61.172400        2.4891100
       57000.000        61.188000        2.4751000
       57200.000        61.203100        2.4610900
       57400.000        61.217900        2.4470900
       57530.000        61.227300        2.4379800
       57660.000        61.236500        2.4291200
       57800.000        61.246300        2.4195900
       58000.000        61.259800        2.4059600
       58300.000        61.279600        2.3862100
       58500.000        61.292500        2.3730400
       58800.000        61.311200        2.3539500
       59000.000        61.323300        2.3412200
       59300.000        61.341100        2.3221300
       59540.000        61.354900        2.3068600
       59670.000        61.362200        2.2988200
       59800.000        61.369500        2.2907800
       59900.000        61.375000        2.2846600
       59950.000        61.377800        2.2816000
       60000.000        61.380600        2.2785400
       60200.000        61.391400        2.2662800
       60400.000        61.401800        2.2540100
       60600.000        61.412000        2.2417500
       60800.000        61.422000        2.2294900
       61100.000        61.436400        2.2116800
       61300.000        61.445800        2.1998100
       61500.000        61.455000        2.1879400
       61700.000        61.463900        2.1764100
       61900.000        61.472700        2.1648800
       62100.000        61.481400        2.1533400
       62300.000        61.489800        2.1418100
       62450.000        61.495900        2.1333900
       62600.000        61.502000        2.1249600
       62800.000        61.509900        2.1137300
       63000.000        61.517700        2.1025000
       63300.000        61.528900        2.0862500
       63500.000        61.536300        2.0754100
       63800.000        61.547000        2.0591600
       64000.000        61.553900        2.0483200
       64300.000        61.564100        2.0327300
       64500.000        61.570800        2.0223300
       64800.000        61.580500        2.0067400
       65000.000        61.586900        1.9963400
       65300.000        61.596200        1.9811200
       65500.000        61.602200        1.9709700
       65900.000        61.613700        1.9506700
       66400.000        61.627500        1.9262200
       66830.000        61.638700        1.9052000
       67100.000        61.645500        1.8924000
       67400.000        61.652900        1.8781700
       67700.000        61.660100        1.8642700
       68000.000        61.667100        1.8503600
       68500.000        61.678300        1.8276500
       69000.000        61.688900        1.8049400
       69500.000        61.698900        1.7831000
       70000.000        61.708600        1.7612700
       70500.000        61.717700        1.7399600
       71000.000        61.726300        1.7186500
       71500.000        61.734300        1.6981500
       72000.000        61.741900        1.6776400
       72800.000        61.753200        1.6463600
       73500.000        61.762200        1.6189900
       74200.000        61.770600        1.5931100
       74960.000        61.778900        1.5650200
       75500.000        61.784400        1.5459300
       76000.000        61.789300        1.5286000
       76600.000        61.794900        1.5083800
       77110.000        61.799400        1.4912000
       77900.000        61.805900        1.4657700
       78600.000        61.811300        1.4432300
       79300.000        61.816300        1.4215400
       79700.000        61.819000        1.4094300
       80000.000        61.821000        1.4003500
       80800.000        61.826000        1.3768500
       81500.000        61.829900        1.3562900
       82300.000        61.834100        1.3339400
       83000.000        61.837400        1.3143900
       84000.000        61.841800        1.2875800
       85000.000        61.845900        1.2616200
       86500.000        61.851000        1.2235800
       88000.000        61.854800        1.1873100
       89000.000        61.856900        1.1640600
       90000.000        61.858700        1.1415200
       91500.000        61.860800        1.1088300
       93000.000        61.862100        1.0775900
       94000.000        61.862600        1.0575200
       95000.000        61.862900        1.0380300
       96500.000        61.862900        1.0099000
       98000.000        61.862800       0.98294300
       99000.000        61.862500       0.96558800
       100000.00        61.862000       0.94871000
