;  Atomic scattering factors for Sn.
;   
;  Concatenation of data from CXRO <http://www-cxro.lbl.gov>
;  and LLNL <http://www-phys.llnl.gov/V_Div/scattering/asf.html>
;  
;  E (eV) f1 f2
;---------------
       10.000000       -9999.0000        3.9734400
       10.161700       -9999.0000        3.9409500
       10.326100       -9999.0000        3.9087100
       10.493100       -9999.0000        3.8767500
       10.662800       -9999.0000        3.8450400
       10.835300       -9999.0000        3.8135900
       11.010600       -9999.0000        3.7824000
       11.188600       -9999.0000        3.7514600
       11.369600       -9999.0000        3.7207800
       11.553500       -9999.0000        3.6468800
       11.740400       -9999.0000        3.5718900
       11.930300       -9999.0000        3.4984500
       12.123200       -9999.0000        3.4265200
       12.319300       -9999.0000        3.3057400
       12.518600       -9999.0000        3.1508900
       12.721000       -9999.0000        3.0033000
       12.926800       -9999.0000        2.8626200
       13.135900       -9999.0000        2.7251100
       13.348300       -9999.0000        2.4831600
       13.564200       -9999.0000        2.2627000
       13.783600       -9999.0000        2.0618100
       14.006600       -9999.0000        1.8998700
       14.233100       -9999.0000        1.7544900
       14.463300       -9999.0000        1.6202400
       14.697300       -9999.0000        1.4962600
       14.935000       -9999.0000        1.3817700
       15.176500       -9999.0000        1.2760400
       15.422000       -9999.0000        1.1824200
       15.671400       -9999.0000        1.1019600
       15.924900       -9999.0000        1.0269800
       16.182500       -9999.0000       0.95710500
       16.444200       -9999.0000       0.89297000
       16.710200       -9999.0000       0.84945900
       16.980500       -9999.0000       0.80806800
       17.255100       -9999.0000       0.76869500
       17.534200       -9999.0000       0.73607300
       17.817800       -9999.0000       0.71069500
       18.106000       -9999.0000       0.68619400
       18.398900       -9999.0000       0.66253600
       18.696400       -9999.0000       0.64628000
       18.998800       -9999.0000       0.63378200
       19.306100       -9999.0000       0.62152600
       19.618400       -9999.0000       0.60950700
       19.935700       -9999.0000       0.60255600
       20.258200       -9999.0000       0.60072700
       20.585800       -9999.0000       0.59890300
       20.918800       -9999.0000       0.59839100
       21.257100       -9999.0000       0.61196700
       21.600900       -9999.0000       0.62585200
       21.950300       -9999.0000       0.64096700
       22.305300       -9999.0000       0.67193900
       22.666100       -9999.0000       0.70440700
       23.032700       -9999.0000       0.75930400
       23.405300       -9999.0000       0.85533900
       23.783800       -9999.0000        1.1389000
       24.168500       -9999.0000        1.8524700
       24.559400       -9999.0000        3.0567700
       24.956600       -9999.0000        3.7142400
       25.360300       -9999.0000        4.0066400
       25.770500       -9999.0000        4.1663800
       26.187300       -9999.0000        4.3324900
       26.610900       -9999.0000        4.5052300
       27.041300       -9999.0000        4.6420400
       27.478600       -9999.0000        4.7165000
       27.923100       -9999.0000        4.7921600
       28.374700       -9999.0000        4.8690300
       28.833700       -9999.0000        4.9418800
       29.300000      -0.61752100        4.8438400
       29.773900      -0.53060300        4.7477400
       30.255500      -0.49323800        4.6535400
       30.744900      -0.50423600        4.5369300
       31.242100      -0.57913800        4.4230200
       31.747500      -0.74025900        4.3514300
       32.260900      -0.89143600        4.3542700
       32.782700       -1.0466100        4.3571100
       33.313000       -1.2359700        4.3599500
       33.851800       -1.4955200        4.4378900
       34.399300       -1.6989000        4.5786700
       34.955700       -1.8856200        4.7239200
       35.521100       -2.0738500        4.8737800
       36.095600       -2.2842000        5.0464200
       36.679400       -2.4773900        5.2591100
       37.272700       -2.6592900        5.4807700
       37.875500       -2.8383900        5.7117700
       38.488200       -3.0236600        5.9525100
       39.110700       -3.2302200        6.2053000
       39.743200       -3.4324600        6.5276900
       40.386100       -3.6105000        6.8668300
       41.039300       -3.7749400        7.2235800
       41.703100       -3.9284200        7.5988700
       42.377600       -4.0715300        7.9936600
       43.063000       -4.2041900        8.4089500
       43.759500       -4.3266800        8.8458200
       44.467300       -4.4410200        9.3096300
       45.186500       -4.5347400        9.8036300
       45.917400       -4.6069100        10.323900
       46.660000       -4.6549900        10.871700
       47.414700       -4.6741100        11.448600
       48.181600       -4.6523400        12.056100
       48.960900       -4.5627300        12.695800
       49.752800       -4.4383000        13.270100
       50.557600       -4.3158800        13.866400
       51.375300       -4.1707400        14.489500
       52.206200       -3.9894400        15.140600
       53.050600       -3.7491700        15.821000
       53.908700       -3.3980400        16.497600
       54.780600       -3.0428400        17.091500
       55.666700       -2.6821700        17.706700
       56.567000       -2.2786600        18.344100
       57.482000       -1.8013100        19.004500
       58.411700       -1.1627000        19.688600
       59.356400      -0.46087300        20.056500
       60.316500       0.12970700        20.400000
       61.292100       0.67051300        20.749300
       62.283400        1.2027500        21.104600
       63.290800        1.7396100        21.466000
       64.314500        2.2996300        21.832100
       65.354700        2.8672500        22.159700
       66.411800        3.4334000        22.492100
       67.485900        4.0098700        22.829600
       68.577500        4.6072000        23.172100
       69.686700        5.2361400        23.519700
       70.813800        5.9235700        23.872600
       71.959100        6.6403200        24.138900
       73.123000        7.3562800        24.404300
       74.305700        8.0990200        24.672600
       75.507600        8.9192300        24.943800
       76.728900        9.7630900        25.065400
       77.969900        10.583200        25.183300
       79.231000        11.421200        25.301800
       80.512500        12.355600        25.420800
       81.814700        13.286500        25.290400
       83.138000        14.130400        25.155300
       84.482700        14.930300        25.020900
       85.849100        15.719900        24.887200
       87.237700        16.514500        24.754300
       88.648700        17.342800        24.622000
       90.082500        18.303200        24.409500
       91.539500        19.153800        24.044900
       93.020100        19.927400        23.685700
       94.524600        20.679700        23.331900
       96.053500        21.428600        22.983400
       97.607100        22.192600        22.640000
       99.185800        22.995400        22.301800
       100.79000        23.894100        21.968700
       102.42000        25.118300        21.640500
       104.07700        26.333100        20.508500
       105.76000        27.062100        19.282300
       107.47100        27.549000        18.129500
       109.20900        27.888300        17.045600
       110.97500        28.123200        16.026500
       112.77000        28.281600        15.068300
       114.59400        28.384300        14.167300
       116.44800        28.451600        13.320300
       118.33100        28.521200        12.523900
       120.24500        28.634200        11.642100
       122.19000        28.583000        10.719900
       124.16600        28.418800        9.8707800
       126.17500        28.200700        9.0888600
       128.21500        27.944400        8.3688800
       130.28900        27.660400        7.7059600
       132.39700        27.357500        7.0955500
       134.53800        27.041700        6.5334800
       136.71400        26.719900        6.0159400
       138.92500        26.399000        5.5393900
       141.17200        26.092400        5.1006000
       143.45600        25.850900        4.6965600
       145.77600        25.573100        4.1048200
       148.13400        25.158100        3.5549300
       150.53000        24.649900        3.0786900
       152.96400        24.059500        2.6662600
       155.43900        23.472100        2.4519100
       157.95300        22.926500        2.2691800
       160.50700        22.390500        2.1490000
       163.10300        21.866700        2.0632200
       165.74200        21.382800        2.0875700
       168.42200        20.948000        2.1212300
       171.14600        20.551400        2.1908200
       173.91500        20.192600        2.2706200
       176.72700        19.850200        2.3533200
       179.58600        19.514700        2.4764300
       182.49100        19.229000        2.6339100
       185.44200        18.986600        2.8014100
       188.44200        18.810200        2.9584000
       191.48900        18.633400        3.0823000
       194.58700        18.456700        3.2113800
       197.73400        18.292300        3.3458700
       200.93200        18.141400        3.4860000
       204.18200        18.005500        3.6319900
       207.48500        17.887800        3.7840900
       210.84000        17.800000        3.9425700
       214.25100        17.725200        4.0652400
       217.71600        17.648100        4.1881200
       221.23700        17.572700        4.3147100
       224.81600        17.504800        4.4451300
       228.45200        17.446200        4.5794900
       232.14700        17.399300        4.7179100
       235.90200        17.367900        4.8605200
       239.71700        17.362800        5.0074300
       243.59500        17.394100        5.1162700
       247.53500        17.405700        5.1941300
       251.53800        17.400700        5.2731800
       255.60700        17.393800        5.3534300
       259.74100        17.387200        5.4349000
       263.94200        17.383000        5.5176100
       268.21100        17.383300        5.6015800
       272.54900        17.393500        5.6868300
       276.95700        17.416000        5.7553400
       281.43700        17.431000        5.8125900
       285.98900        17.440900        5.8704100
       290.61500        17.453100        5.9288000
       295.31500        17.473300        5.9877700
       300.09200        17.523800        6.0311700
       304.94500        17.548000        6.0308500
       309.87800        17.552200        6.0305300
       314.89000        17.545300        6.0302000
       319.98300        17.530600        6.0298800
       325.15800        17.511300        6.0295600
       330.41800        17.496700        6.0292300
       335.76200        17.474200        5.9958200
       341.19200        17.428100        5.9560700
       346.71100        17.360900        5.9165700
       352.31900        17.277900        5.8773300
       358.01700        17.179700        5.8383600
       363.80800        17.066600        5.7996400
       369.69200        16.941200        5.7611800
       375.67200        16.804300        5.7138300
       381.74800        16.637700        5.6547700
       387.92200        16.441800        5.5963100
       394.19700        16.216400        5.5384700
       400.57300        15.958800        5.4812200
       407.05200        15.658700        5.4245700
       413.63500        15.314300        5.3863300
       420.32600        14.941500        5.3628900
       427.12400        14.527500        5.3395500
       434.03200        14.056900        5.3163100
       441.05200        13.502300        5.2931800
       448.18600        12.864200        5.3224300
       455.43500        12.141900        5.3654100
       462.80200        11.247300        5.4570800
       470.28700        10.255300        5.6479600
       477.89400        9.0916400        5.8455200
       484.80000        7.9750200        6.0280400
       485.00000        7.8772600        5.6171300
       485.62300        7.3779800        5.7346600
       493.47800        4.9725000        7.4281300
       501.45900        3.2141100        9.6216200
       509.57000        1.7852600        12.462800
       517.81200       0.93542500        16.143100
       526.18700        2.9427700        20.520300
       534.69800        5.1076100        22.224800
       543.34600        7.3039800        23.853200
       552.13400        9.1784700        24.622200
       561.06500        10.754000        25.416000
       570.13900        12.522600        25.991300
       579.36100        13.992700        26.110600
       588.73200        15.241600        26.230300
       598.25400        16.434200        26.350700
       607.93000        17.658200        26.348700
       617.76300        18.676800        26.132300
       627.75500        19.524400        25.917700
       637.90800        20.243700        25.704900
       648.22600        20.844700        25.523300
       658.71100        21.395800        25.393200
       669.36500        21.892300        25.263800
       680.19100        22.355000        25.135000
       691.19300        22.784500        24.882500
       702.37200        22.419000        24.439800
       713.73300        21.816400        25.168900
       725.27700        21.960900        26.506800
       737.00800        22.798000        27.915700
       748.92800        24.505400        28.747200
       761.04200        25.992800        28.786600
       773.35100        27.208200        28.826000
       785.85900        28.356200        28.636900
       798.57000        29.335500        28.387900
       811.48600        30.224100        28.141100
       824.61100        31.089200        27.896400
       837.94900        31.921000        27.586900
       851.50200        32.669400        27.239700
       865.27400        33.355800        26.896800
       879.26900        33.993200        26.558300
       893.49100        34.563200        26.224100
       907.94300        35.127800        25.995100
       922.62800        35.731200        25.781800
       937.55100        36.380600        25.570100
       952.71500        37.069400        25.360300
       968.12400        38.071900        25.152100
       983.78300        39.154000        24.341300
       999.69500        39.352900        23.291200
       1015.8600        39.506800        22.869800
       1032.2900        39.868700        22.408300
       1048.9900        40.208300        21.951200
       1065.9600        40.526000        21.498700
       1083.2000        40.824400        21.055400
       1100.7200        41.104800        20.621200
       1118.5200        41.368100        20.196100
       1136.6100        41.615500        19.779600
       1155.0000        41.847900        19.371700
       1173.6800        42.066000        18.972300
       1192.6600        42.270700        18.581000
       1211.9500        42.462800        18.197900
       1231.5500        42.643100        17.822800
       1251.4700        42.812200        17.455600
       1271.7200        42.970500        17.096400
       1292.2900        43.119600        16.745200
       1313.1900        43.259700        16.401000
       1334.4300        43.391000        16.063900
       1356.0100        43.514000        15.733800
       1377.9400        43.629200        15.410300
       1400.2300        43.736800        15.093600
       1422.8800        43.837100        14.783400
       1445.8900        43.930300        14.479600
       1469.2800        44.016600        14.182500
       1493.0400        44.096000        13.892100
       1517.1900        44.170400        13.610400
       1541.7300        44.240800        13.334900
       1566.6700        44.307200        13.064900
       1592.0100        44.369300        12.800400
       1617.7600        44.427600        12.541100
       1643.9200        44.481800        12.286900
       1670.5100        44.532500        12.038300
       1697.5300        44.580300        11.794600
       1724.9900        44.628700        11.555600
       1752.8900        44.673400        11.314600
       1781.2400        44.711500        11.076200
       1810.0500        44.743500        10.841100
       1839.3200        44.769700        10.611100
       1869.0700        44.791600        10.386000
       1899.3000        44.809300        10.165400
       1930.0200        44.823000        9.9496000
       1961.2400        44.833200        9.7384600
       1992.9600        44.838800        9.5318500
       2025.2000        44.847000        9.3339700
       2057.9500        44.853400        9.1316900
       2091.2400        44.853200        8.9320500
       2125.0600        44.848700        8.7361100
       2159.4300        44.840200        8.5432000
       2194.3600        44.827800        8.3538700
       2229.8500        44.811200        8.1675300
       2265.9200        44.790900        7.9849400
       2302.5700        44.767000        7.8050800
       2339.8100        44.738800        7.6282400
       2377.6600        44.706600        7.4547400
       2416.1100        44.670300        7.2840600
       2455.1900        44.629800        7.1165400
       2494.9000        44.585000        6.9517000
       2535.2600        44.535500        6.7898400
       2576.2600        44.481300        6.6307800
       2617.9300        44.422100        6.4745400
       2660.2700        44.357700        6.3210400
       2703.3000        44.287700        6.1701800
       2747.0300        44.211900        6.0220200
       2791.4600        44.129700        5.8764700
       2836.6100        44.040900        5.7335200
       2882.4900        43.944700        5.5930300
       2929.1100        43.840500        5.4550200
       2976.4800        43.727400        5.3194700
       3024.6300        43.604700        5.1863100
       3073.5500        43.471200        5.0555500
       3123.2600        43.325500        4.9270400
       3173.7800        43.165900        4.8008200
       3225.1100        42.990500        4.6768800
       3277.2700        42.796700        4.5551200
       3330.2800        42.581100        4.4354400
       3384.1500        42.339600        4.3179400
       3438.8800        42.066400        4.2025200
       3494.5000        41.753800        4.0892200
       3551.0200        41.390600        3.9778700
       3608.4600        40.959700        3.8684100
       3666.8200        40.434200        3.7610500
       3726.1300        39.766100        3.6555900
       3786.4000        38.855500        3.5519100
       3847.6400        37.430300        3.4500400
       3909.8700        33.878100        3.3500300
       3928.7000        21.367000        3.3206500
       3928.9000        21.368700        10.816500
       3973.1100        35.782400        10.625800
       4037.3800        37.543600        10.358100
       4102.6800        37.821600        10.097200
       4156.0000        31.145200        9.8919100
       4156.2000        31.148000        13.588000
       4169.0300        37.020200        13.523300
       4236.4600        39.780800        13.191700
       4304.9800        40.916300        12.869000
       4374.6200        41.572900        12.555000
       4445.3700        41.560700        12.247100
       4464.6000        39.149100        12.165600
       4464.8000        39.150900        13.709700
       4517.2700        42.672400        13.494200
       4590.3300        43.636100        13.203900
       4664.5800        44.335700        12.916800
       4740.0300        44.911600        12.632600
       4816.6900        45.406900        12.351900
       4894.6000        45.842900        12.074700
       4973.7700        46.231800        11.801000
       5054.2100        46.581800        11.531100
       5135.9600        46.898900        11.265200
       5219.0300        47.187600        11.003300
       5303.4400        47.451600        10.745500
       5389.2200        47.693400        10.491600
       5476.3900        47.915300        10.242000
       5564.9700        48.119400        9.9968300
       5654.9800        48.307500        9.7557100
       5746.4400        48.480700        9.5189200
       5839.3900        48.640300        9.2864200
       5933.8300        48.787500        9.0583100
       6029.8100        48.923300        8.8345300
       6127.3300        49.048400        8.6150500
       6226.4400        49.163500        8.3998100
       6327.1500        49.269500        8.1889400
       6429.4800        49.367000        7.9824300
       6533.4800        49.456600        7.7800400
       6639.1500        49.538600        7.5818200
       6746.5400        49.613600        7.3879800
       6855.6500        49.682300        7.1982200
       6966.5400        49.744800        7.0125200
       7079.2200        49.801500        6.8309300
       7193.7200        49.852900        6.6533300
       7310.0700        49.899300        6.4798600
       7428.3100        49.941000        6.3101200
       7548.4500        49.978200        6.1443800
       7670.5400        50.011300        5.9823700
       7794.6100        50.040400        5.8241200
       7920.6800        50.065800        5.6697100
       8048.7900        50.087900        5.5187200
       8178.9800        50.106500        5.3714700
       8311.2600        50.122300        5.2278200
       8445.6900        50.135200        5.0874800
       8582.2900        50.145300        4.9507000
       8721.1100        50.153000        4.8171800
       8862.1600        50.158200        4.6869200
       9005.5000        50.161200        4.5600000
       9151.1600        50.162200        4.4360400
       9299.1700        50.161100        4.3153100
       9449.5800        50.158300        4.1976600
       9602.4200        50.153700        4.0829000
       9757.7300        50.147400        3.9710600
       9915.5500        50.139600        3.8623500
       10075.900        50.130600        3.7562100
       10238.900        50.120200        3.6528100
       10404.500        50.108600        3.5520900
       10572.800        50.095700        3.4539900
       10743.800        50.081800        3.3584600
       10917.600        50.066900        3.2654400
       11094.200        50.051000        3.1748600
       11273.600        50.034200        3.0866800
       11455.900        50.016700        3.0008500
       11641.200        49.998300        2.9173000
       11829.500        49.979200        2.8359800
       12020.800        49.959500        2.7568400
       12215.300        49.939100        2.6798400
       12412.800        49.918200        2.6049100
       12613.600        49.896700        2.5320100
       12817.600        49.874600        2.4610900
       13025.000        49.852200        2.3921000
       13235.600        49.829200        2.3249900
       13449.700        49.805800        2.2597300
       13667.200        49.782100        2.1962500
       13888.300        49.757900        2.1345200
       14112.900        49.733400        2.0744900
       14341.200        49.708600        2.0161200
       14573.100        49.683400        1.9593700
       14808.900        49.657900        1.9042000
       15048.400        49.632000        1.8505600
       15291.800        49.605900        1.7984200
       15539.100        49.579400        1.7477400
       15790.400        49.552700        1.6984800
       16045.800        49.525600        1.6506000
       16305.400        49.498200        1.6040600
       16569.100        49.470400        1.5588400
       16837.100        49.442300        1.5148900
       17109.400        49.413800        1.4721800
       17386.100        49.385000        1.4306900
       17667.400        49.355700        1.3903700
       17953.100        49.325900        1.3511900
       18243.500        49.295700        1.3131300
       18538.600        49.264900        1.2761600
       18838.400        49.233500        1.2402400
       19143.100        49.201500        1.2053500
       19452.700        49.168800        1.1714500
       19767.400        49.135300        1.1385300
       20087.100        49.100900        1.1065500
       20412.000        49.065400        1.0754900
       20742.100        49.028900        1.0453200
       21077.600        48.991100        1.0160200
       21418.500        48.952000       0.98757100
       21765.000        48.911100       0.95993800
       22117.000        48.868500       0.93310400
       22474.700        48.823700       0.90704700
       22838.200        48.776400       0.88174300
       23207.600        48.726300       0.85717300
       23583.000        48.672800       0.83331500
       23964.400        48.615300       0.81015000
       24352.000        48.553100       0.78765800
       24745.900        48.485000       0.76582000
       25146.200        48.409800       0.74461800
       25552.900        48.325700       0.72403400
       25966.200        48.230000       0.70405000
       26386.100        48.119100       0.68464800
       26812.900        47.987200       0.66581400
       27246.600        47.824900       0.64752900
       27687.300        47.615000       0.62978000
       28135.100        47.321200       0.61254900
       28590.200        46.841300       0.59582300
       29052.600        45.564100       0.57958600
       29200.000        38.687700       0.57455700
       29200.200        38.687800        3.5485100
       29522.500        46.400300        3.4878300
       30000.000        47.313600        3.4009900
       30050.000        47.394500        3.3944700
       30100.000        47.452500        3.3844300
       30150.000        47.507100        3.3743900
       30200.000        47.558900        3.3643400
       30250.000        47.608000        3.3544800
       30300.000        47.654800        3.3446200
       30350.000        47.699300        3.3347600
       30400.000        47.741700        3.3249000
       30450.000        47.782200        3.3157800
       30500.000        47.821200        3.3066600
       30550.000        47.858500        3.2975500
       30600.000        47.894400        3.2884300
       30650.000        47.929200        3.2801100
       30700.000        47.962700        3.2717900
       30750.000        47.995100        3.2634700
       30800.000        48.026700        3.2551500
       30900.000        48.087000        3.2397400
       31000.000        48.144300        3.2243300
       31100.000        48.199600        3.2091300
       31200.000        48.252400        3.1939400
       31270.000        48.287600        3.1831500
       31350.000        48.326500        3.1708200
       31420.000        48.359500        3.1600300
       31500.000        48.396200        3.1477000
       31600.000        48.440400        3.1318800
       31700.000        48.482300        3.1160500
       31800.000        48.522500        3.1002300
       31900.000        48.561200        3.0844100
       32000.000        48.598400        3.0685900
       32100.000        48.634000        3.0527600
       32200.000        48.668300        3.0369400
       32300.000        48.701500        3.0211200
       32380.000        48.727200        3.0085000
       32450.000        48.748900        2.9974500
       32530.000        48.773000        2.9848300
       32600.000        48.793500        2.9737800
       32700.000        48.821900        2.9584600
       32800.000        48.849200        2.9431400
       32900.000        48.875600        2.9278100
       33000.000        48.900800        2.9124900
       33100.000        48.925300        2.8981600
       33200.000        48.949200        2.8838400
       33300.000        48.972400        2.8695200
       33400.000        48.995000        2.8551900
       33500.000        49.017000        2.8413100
       33600.000        49.038400        2.8274300
       33700.000        49.059100        2.8135600
       33800.000        49.079300        2.7996800
       33950.000        49.108500        2.7795600
       34100.000        49.136400        2.7594400
       34200.000        49.154500        2.7465500
       34300.000        49.172200        2.7336600
       34400.000        49.189500        2.7207700
       34500.000        49.206400        2.7078800
       34600.000        49.222900        2.6953800
       34700.000        49.239100        2.6828700
       34800.000        49.254800        2.6703700
       34900.000        49.270300        2.6578700
       35000.000        49.285100        2.6458400
       35100.000        49.299800        2.6338100
       35300.000        49.328300        2.6097600
       35500.000        49.355700        2.5864700
       35700.000        49.382000        2.5631800
       35900.000        49.407300        2.5405100
       36030.000        49.423200        2.5257700
       36160.000        49.438800        2.5114500
       36300.000        49.455200        2.4960200
       36400.000        49.466700        2.4850100
       36500.000        49.478100        2.4739900
       36650.000        49.494800        2.4575500
       36800.000        49.510800        2.4411200
       36900.000        49.521200        2.4301600
       37000.000        49.531300        2.4192000
       37150.000        49.546200        2.4033400
       37300.000        49.560600        2.3874800
       37400.000        49.570000        2.3769100
       37500.000        49.579200        2.3663400
       37650.000        49.592700        2.3510300
       37800.000        49.605800        2.3357200
       37900.000        49.614300        2.3255100
       38000.000        49.622800        2.3153000
       38150.000        49.635100        2.3004400
       38300.000        49.647100        2.2855800
       38400.000        49.655100        2.2756800
       38500.000        49.662600        2.2657700
       38650.000        49.673900        2.2514100
       38800.000        49.685000        2.2370500
       38900.000        49.692200        2.2274800
       39000.000        49.699300        2.2179100
       39150.000        49.709800        2.2038300
       39300.000        49.719900        2.1897500
       39400.000        49.726500        2.1803600
       39500.000        49.733000        2.1709700
       39800.000        49.751700        2.1437400
       39900.000        49.757700        2.1346700
       40000.000        49.763700        2.1255900
       40200.000        49.775200        2.1080800
       40400.000        49.786400        2.0905700
       40600.000        49.797100        2.0730700
       40800.000        49.807500        2.0555600
       40950.000        49.815000        2.0430600
       41100.000        49.822400        2.0305700
       41300.000        49.831900        2.0139100
       41500.000        49.841100        1.9972500
       41700.000        49.850100        1.9813800
       41900.000        49.858700        1.9655100
       42100.000        49.867100        1.9496400
       42300.000        49.875200        1.9337700
       42600.000        49.886900        1.9110700
       43000.000        49.902000        1.8808100
       43200.000        49.909200        1.8661200
       43400.000        49.916100        1.8514400
       43600.000        49.922700        1.8367500
       43800.000        49.929100        1.8220700
       44100.000        49.938300        1.8010400
       44500.000        49.949900        1.7730100
       44900.000        49.960800        1.7461200
       45300.000        49.971100        1.7192300
       45600.000        49.978200        1.6998300
       46000.000        49.987200        1.6739600
       46300.000        49.993600        1.6552300
       46500.000        49.997600        1.6427500
       47000.000        50.007100        1.6124600
       47500.000        50.015800        1.5830300
       48000.000        50.023700        1.5544400
       48500.000        50.030900        1.5268700
       49000.000        50.037700        1.5000600
       49500.000        50.043900        1.4739900
       50000.000        50.049800        1.4486200
       50500.000        50.055100        1.4241900
       51000.000        50.060000        1.3997600
       51500.000        50.064500        1.3766100
       52000.000        50.068700        1.3534600
       53000.000        50.076200        1.3095200
       54000.000        50.082400        1.2671600
       55000.000        50.087400        1.2269200
       56000.000        50.091400        1.1881900
       56800.000        50.093700        1.1585500
       57530.000        50.095300        1.1325100
       58000.000        50.096100        1.1162200
       58500.000        50.096800        1.0992400
       59540.000        50.097800        1.0651900
       59800.000        50.097900        1.0569300
       60000.000        50.097900        1.0506500
       60800.000        50.097900        1.0260900
       61500.000        50.097800        1.0053200
       62300.000        50.097200       0.98238100
       63000.000        50.096700       0.96297000
       64000.000        50.095400       0.93626100
       65000.000        50.094200       0.91069000
       65900.000        50.092600       0.88835600
       66830.000        50.090900       0.86615900
       67400.000        50.089700       0.85297700
       68000.000        50.088400       0.83943600
       69000.000        50.086000       0.81759600
       70000.000        50.083500       0.79662800
       71000.000        50.080800       0.77622500
       72000.000        50.078100       0.75662000
       72800.000        50.075600       0.74148200
       73500.000        50.073400       0.72861700
       74200.000        50.071200       0.71609400
       74960.000        50.068900       0.70287000
       75500.000        50.067100       0.69368100
       76000.000        50.065500       0.68533500
       77110.000        50.061800       0.66735300
       78600.000        50.056700       0.64433800
       79300.000        50.054400       0.63394700
       80000.000        50.052000       0.62381200
       81500.000        50.046800       0.60279400
       83000.000        50.041600       0.58284900
       84000.000        50.038200       0.57011200
       85000.000        50.034700       0.55779800
       86500.000        50.029500       0.53996500
       88000.000        50.024400       0.52299400
       89000.000        50.020900       0.51213100
       90000.000        50.017500       0.50161200
       91500.000        50.012400       0.48642600
       93000.000        50.007400       0.47193600
       94000.000        50.004000       0.46264100
       95000.000        50.000700       0.45362500
       96500.000        49.995800       0.44056300
       98000.000        49.991000       0.42807100
       99000.000        49.987800       0.42004200
       99500.000        49.986300       0.41611500
       100000.00        49.984700       0.41224300
