;  Atomic scattering factors for Sr.
;   
;  Concatenation of data from CXRO <http://www-cxro.lbl.gov>
;  and LLNL <http://www-phys.llnl.gov/V_Div/scattering/asf.html>
;  
;  E (eV) f1 f2
;---------------
       10.000000       -9999.0000       0.17126200
       10.161700       -9999.0000       0.17489600
       10.326100       -9999.0000       0.17860800
       10.493100       -9999.0000       0.18239800
       10.662800       -9999.0000       0.18626900
       10.835300       -9999.0000       0.19061400
       11.010600       -9999.0000       0.19513600
       11.188600       -9999.0000       0.19976600
       11.369600       -9999.0000       0.20450500
       11.553500       -9999.0000       0.20935700
       11.740400       -9999.0000       0.21432400
       11.930300       -9999.0000       0.21941000
       12.123200       -9999.0000       0.22538500
       12.319300       -9999.0000       0.23152200
       12.518600       -9999.0000       0.23782700
       12.721000       -9999.0000       0.24430300
       12.926800       -9999.0000       0.25095500
       13.135900       -9999.0000       0.25801400
       13.348300       -9999.0000       0.26692500
       13.564200       -9999.0000       0.27614400
       13.783600       -9999.0000       0.28568100
       14.006600       -9999.0000       0.29554700
       14.233100       -9999.0000       0.30575500
       14.463300       -9999.0000       0.31641000
       14.697300       -9999.0000       0.32906700
       14.935000       -9999.0000       0.34223000
       15.176500       -9999.0000       0.35592000
       15.422000       -9999.0000       0.37015700
       15.671400       -9999.0000       0.38496400
       15.924900       -9999.0000       0.40036300
       16.182500       -9999.0000       0.41692200
       16.444200       -9999.0000       0.43417700
       16.710200       -9999.0000       0.45214700
       16.980500       -9999.0000       0.47086000
       17.255100       -9999.0000       0.49034700
       17.534200       -9999.0000       0.51064100
       17.817800       -9999.0000       0.53270300
       18.106000       -9999.0000       0.56054700
       18.398900       -9999.0000       0.58984700
       18.696400       -9999.0000       0.62067900
       18.998800       -9999.0000       0.65312200
       19.306100       -9999.0000       0.68726100
       19.618400       -9999.0000       0.72386300
       19.935700       -9999.0000       0.76965300
       20.258200       -9999.0000       0.81834100
       20.585800       -9999.0000       0.87010700
       20.918800       -9999.0000       0.92514800
       21.257100       -9999.0000       0.98367200
       21.600900       -9999.0000        1.0643100
       21.950300       -9999.0000        1.1678800
       22.305300       -9999.0000        1.2815300
       22.666100       -9999.0000        2.5818400
       23.032700       -9999.0000        5.6716100
       23.405300       -9999.0000        12.336800
       23.783800       -9999.0000        13.411800
       24.168500       -9999.0000        14.558500
       24.559400       -9999.0000        15.778200
       24.956600       -9999.0000        16.896400
       25.360300       -9999.0000        17.761400
       25.770500       -9999.0000        18.670600
       26.187300       -9999.0000        19.229800
       26.610900       -9999.0000        19.774700
       27.041300       -9999.0000        20.335000
       27.478600       -9999.0000        20.456000
       27.923100       -9999.0000        20.388200
       28.374700       -9999.0000        20.320700
       28.833700       -9999.0000        20.087500
       29.300000        5.5814100        19.780900
       29.773900        6.6073000        19.479000
       30.255500        7.6308400        19.181700
       30.744900        8.7709000        18.744500
       31.242100        9.6912500        18.064300
       31.747500        10.442900        17.408700
       32.260900        11.091800        16.776900
       32.782700        11.669800        16.168100
       33.313000        12.195000        15.581300
       33.851800        12.684300        15.015900
       34.399300        13.161300        14.470900
       34.955700        13.686200        13.929200
       35.521100        14.136200        13.175100
       36.095600        14.442700        12.461800
       36.679400        14.664300        11.787200
       37.272700        14.830300        11.149100
       37.875500        14.952200        10.545500
       38.488200        15.038600        9.9746500
       39.110700        15.095800        9.4346700
       39.743200        15.129100        8.9239200
       40.386100        15.143100        8.4408100
       41.039300        15.142100        7.9838600
       41.703100        15.130400        7.5516500
       42.377600        15.116000        7.1428400
       43.063000        15.115400        6.7561600
       43.759500        15.120700        6.3163000
       44.467300        15.058300        5.8777400
       45.186500        14.962000        5.4696500
       45.917400        14.844700        5.0898800
       46.660000        14.712700        4.7364800
       47.414700        14.569800        4.4076200
       48.181600        14.418900        4.1015900
       48.960900        14.261900        3.8168200
       49.752800        14.100600        3.5518100
       50.557600        13.935900        3.3052000
       51.375300        13.768300        3.0757200
       52.206200        13.598200        2.8650700
       53.050600        13.430500        2.6704400
       53.908700        13.264300        2.4890300
       54.780600        13.099100        2.3199400
       55.666700        12.935000        2.1623300
       56.567000        12.772000        2.0154400
       57.482000        12.610200        1.8785200
       58.411700        12.449300        1.7509100
       59.356400        12.288900        1.6319600
       60.316500        12.129400        1.5233000
       61.292100        11.972400        1.4223500
       62.283400        11.816600        1.3281000
       63.290800        11.661200        1.2401000
       64.314500        11.505400        1.1579200
       65.354700        11.347200        1.0811900
       66.411800        11.180500        1.0095500
       67.485900        11.013600       0.96921200
       68.577500        10.861700       0.93467000
       69.686700        10.717400       0.90135700
       70.813800        10.574600       0.86923400
       71.959100        10.431300       0.84204400
       73.123000        10.282000       0.82387300
       74.305700        10.144300       0.81744300
       75.507600        10.009400       0.81106400
       76.728900        9.8788700       0.81673900
       77.969900        9.7562800       0.82311500
       79.231000        9.6384900       0.82954100
       80.512500        9.5225800       0.83601700
       81.814700        9.4089100       0.84584200
       83.138000        9.2979900       0.85591100
       84.482700        9.1886400       0.86609900
       85.849100        9.0796000       0.87640900
       87.237700        8.9687000       0.88789500
       88.648700        8.8594100       0.90302700
       90.082500        8.7514700       0.91841500
       91.539500        8.6436300       0.93406700
       93.020100        8.5353800       0.94998500
       94.524600        8.4263600       0.96617500
       96.053500        8.3167500       0.98263900
       97.607100        8.2053600       0.99715400
       99.185800        8.0901900        1.0113200
       100.79000        7.9712600        1.0256900
       102.42000        7.8481600        1.0402600
       104.07700        7.7203000        1.0550500
       105.76000        7.5869100        1.0700400
       107.47100        7.4468600        1.0852400
       109.20900        7.2990300        1.1019000
       110.97500        7.1436800        1.1195400
       112.77000        6.9789700        1.1374600
       114.59400        6.8022200        1.1556700
       116.44800        6.6082700        1.1741700
       118.33100        6.3957700        1.2026400
       120.24500        6.1644800        1.2354600
       122.19000        5.9105900        1.2844200
       124.16600        5.6234800        1.3391500
       126.17500        5.2997400        1.4454100
       128.21500        4.9005900        1.5765200
       130.28900        4.6043900        1.9948500
       132.39700        4.5632500        2.2146600
       134.53800        4.3780600        2.2855300
       136.71400        4.0774300        2.4190500
       138.92500        3.7199800        2.5755700
       141.17200        3.3410800        2.8681800
       143.45600        2.9786100        3.2032800
       145.77600        2.6165000        3.6209200
       148.13400        2.3240500        4.1255000
       150.53000        2.1297300        4.6273600
       152.96400        1.9380400        5.1312500
       155.43900        1.7701800        5.6899900
       157.95300        1.6945600        6.3095900
       160.50700        1.7214900        6.8370800
       163.10300        1.7223400        7.3391000
       165.74200        1.7273300        7.8779600
       168.42200        1.8224700        8.4178000
       171.14600        1.8982200        8.8944800
       173.91500        1.9747300        9.3981600
       176.72700        2.0811100        9.9303500
       179.58600        2.2721100        10.492700
       182.49100        2.4902900        10.923300
       185.44200        2.6837600        11.360800
       188.44200        2.8759600        11.815700
       191.48900        3.1127500        12.288900
       194.58700        3.3657200        12.690600
       197.73400        3.6057100        13.096800
       200.93200        3.8524400        13.516100
       204.18200        4.1112500        13.928800
       207.48500        4.3828900        14.352800
       210.84000        4.6830200        14.789800
       214.25100        5.0714900        15.240000
       217.71600        5.4628500        15.554000
       221.23700        5.8139000        15.870900
       224.81600        6.1579600        16.194200
       228.45200        6.5092200        16.524100
       232.14700        6.8903600        16.851100
       235.90200        7.2641200        17.142700
       239.71700        7.6332500        17.439300
       243.59500        8.0063000        17.741000
       247.53500        8.3894800        18.048000
       251.53800        8.7867300        18.360200
       255.60700        9.2010000        18.678900
       259.74100        9.6433700        19.008800
       263.94200        10.123500        19.344400
       268.21100        10.658200        19.686000
       272.54900        11.314600        20.022900
       276.95700        11.967200        20.159800
       281.43700        12.590600        20.297700
       285.98900        13.233400        20.436400
       290.61500        14.005600        20.484700
       295.31500        14.640500        20.333100
       300.09200        15.173700        20.182600
       304.94500        15.632700        20.033200
       309.87800        16.027200        19.926700
       314.89000        16.431400        19.865200
       319.98300        16.837300        19.803800
       325.15800        17.238500        19.742800
       330.41800        17.634600        19.682100
       335.76200        18.026200        19.621500
       341.19200        18.413800        19.561000
       346.71100        18.798800        19.500800
       352.31900        19.182600        19.440800
       358.01700        19.566400        19.380800
       363.80800        19.952100        19.320900
       369.69200        20.342400        19.261200
       375.67200        20.740800        19.201600
       381.74800        21.155500        19.142400
       387.92200        21.605300        19.067400
       394.19700        22.081600        18.957300
       400.57300        22.551800        18.758400
       407.05200        22.958300        18.526600
       413.63500        23.327100        18.297700
       420.32600        23.671800        18.071700
       427.12400        23.998600        17.848500
       434.03200        24.310600        17.627600
       441.05200        24.610700        17.409700
       448.18600        24.907100        17.192800
       455.43500        25.192400        16.969400
       462.80200        25.465300        16.741900
       470.28700        25.723500        16.513900
       477.89400        25.969900        16.289900
       485.62300        26.207200        16.068200
       493.47800        26.436100        15.849300
       501.45900        26.658000        15.633400
       509.57000        26.874600        15.420600
       517.81200        27.089400        15.209400
       526.18700        27.301700        14.996100
       534.69800        27.508200        14.775500
       543.34600        27.702500        14.553200
       552.13400        27.890700        14.334500
       561.06500        28.073100        14.110400
       570.13900        28.244400        13.885600
       579.36100        28.404900        13.664000
       588.73200        28.558100        13.446500
       598.25400        28.705500        13.232800
       607.93000        28.848500        13.022600
       617.76300        28.988300        12.815600
       627.75500        29.129400        12.611000
       637.90800        29.270200        12.399100
       648.22600        29.404200        12.175300
       658.71100        29.516700        11.945500
       669.36500        29.607300        11.720100
       680.19100        29.680000        11.522900
       691.19300        29.761200        11.347300
       702.37200        29.866200        11.177500
       713.73300        29.978700        10.987500
       725.27700        30.075100        10.785200
       737.00800        30.160300        10.586500
       748.92800        30.238600        10.391600
       761.04200        30.312300        10.200200
       773.35100        30.382800        10.010900
       785.85900        30.449600        9.8209300
       798.57000        30.508500        9.6310600
       811.48600        30.561000        9.4448000
       824.61100        30.608300        9.2621800
       837.94900        30.651500        9.0831100
       851.50200        30.690700        8.9067100
       865.27400        30.726000        8.7330100
       879.26900        30.757100        8.5620800
       893.49100        30.784300        8.3943800
       907.94300        30.808500        8.2299800
       922.62800        30.831200        8.0688000
       937.55100        30.850400        7.9058800
       952.71500        30.864800        7.7449400
       968.12400        30.873600        7.5861600
       983.78300        30.877900        7.4307600
       999.69500        30.878100        7.2786000
       1015.8600        30.874200        7.1296400
       1032.2900        30.868800        6.9853600
       1048.9900        30.861600        6.8412900
       1065.9600        30.849000        6.6972600
       1083.2000        30.831300        6.5563400
       1100.7200        30.809400        6.4184200
       1118.5200        30.783500        6.2834200
       1136.6100        30.753600        6.1511000
       1155.0000        30.719700        6.0216600
       1173.6800        30.682200        5.8950900
       1192.6600        30.640800        5.7709100
       1211.9500        30.595400        5.6494600
       1231.5500        30.547000        5.5307400
       1251.4700        30.495100        5.4122900
       1271.7200        30.438500        5.2943700
       1292.2900        30.374600        5.1766100
       1313.1900        30.303700        5.0612700
       1334.4300        30.225800        4.9485300
       1356.0100        30.141000        4.8383800
       1377.9400        30.048900        4.7307000
       1400.2300        29.949100        4.6254400
       1422.8800        29.841000        4.5225800
       1445.8900        29.723700        4.4219000
       1469.2800        29.596300        4.3235100
       1493.0400        29.457800        4.2274300
       1517.1900        29.306900        4.1338300
       1541.7300        29.142100        4.0424100
       1566.6700        28.961500        3.9530700
       1592.0100        28.762500        3.8658000
       1617.7600        28.542200        3.7804500
       1643.9200        28.296400        3.6969500
       1670.5100        28.019800        3.6152000
       1697.5300        27.705600        3.5352700
       1724.9900        27.342200        3.4571300
       1752.8900        26.918400        3.3843800
       1781.2400        26.415400        3.3144300
       1810.0500        25.800000        3.2468400
       1839.3200        25.013800        3.1806400
       1869.0700        23.936300        3.1157800
       1899.3000        22.243800        3.0522300
       1930.0200        18.050300        2.9899800
       1939.5000        5.2801000        2.9712300
       1939.7000        5.2840300        11.764000
       1961.2400        20.056600        11.462400
       1992.9600        21.094300        11.037900
       2006.7000        15.235800        10.860900
       2006.9000        15.250100        15.132000
       2025.2000        22.885400        14.947900
       2057.9500        25.203300        14.627900
       2091.2400        26.558500        14.314800
       2125.0600        27.498700        14.008200
       2159.4300        28.134400        13.708300
       2194.3600        28.322700        13.414400
       2216.2000        25.595200        13.236100
       2216.4000        25.605100        15.207700
       2229.8500        28.767000        15.077900
       2265.9200        30.192900        14.739000
       2302.5700        31.080500        14.405400
       2339.8100        31.786500        14.076700
       2377.6600        32.384800        13.752900
       2416.1100        32.907400        13.434800
       2455.1900        33.371500        13.121900
       2494.9000        33.788400        12.814500
       2535.2600        34.165400        12.512100
       2576.2600        34.508200        12.215200
       2617.9300        34.821100        11.923800
       2660.2700        35.108100        11.638300
       2703.3000        35.371800        11.357500
       2747.0300        35.614300        11.082100
       2791.4600        35.837300        10.812300
       2836.6100        36.043400        10.548300
       2882.4900        36.233900        10.289000
       2929.1100        36.409700        10.035000
       2976.4800        36.571800        9.7863400
       3024.6300        36.721800        9.5431500
       3073.5500        36.860400        9.3047300
       3123.2600        36.988400        9.0716500
       3173.7800        37.106400        8.8432800
       3225.1100        37.215200        8.6201900
       3277.2700        37.315400        8.4019400
       3330.2800        37.407900        8.1887100
       3384.1500        37.492900        7.9800100
       3438.8800        37.570900        7.7760300
       3494.5000        37.642200        7.5764700
       3551.0200        37.707200        7.3819300
       3608.4600        37.766800        7.1917900
       3666.8200        37.821000        7.0060200
       3726.1300        37.870100        6.8245800
       3786.4000        37.914500        6.6474200
       3847.6400        37.954400        6.4744000
       3909.8700        37.990100        6.3055300
       3973.1100        38.021800        6.1407400
       4037.3800        38.049900        5.9799100
       4102.6800        38.074600        5.8229800
       4169.0300        38.095900        5.6698500
       4236.4600        38.114200        5.5204800
       4304.9800        38.129700        5.3748000
       4374.6200        38.142400        5.2327000
       4445.3700        38.152700        5.0941100
       4517.2700        38.160500        4.9589200
       4590.3300        38.166000        4.8272000
       4664.5800        38.169600        4.6987200
       4740.0300        38.171100        4.5735100
       4816.6900        38.170700        4.4514300
       4894.6000        38.168700        4.3324500
       4973.7700        38.165000        4.2165400
       5054.2100        38.159800        4.1035400
       5135.9600        38.153200        3.9934500
       5219.0300        38.145200        3.8861700
       5303.4400        38.136000        3.7816800
       5389.2200        38.125600        3.6798200
       5476.3900        38.114100        3.5806200
       5564.9700        38.101700        3.4840100
       5654.9800        38.088200        3.3898500
       5746.4400        38.073800        3.2982500
       5839.3900        38.058600        3.2089400
       5933.8300        38.042600        3.1219900
       6029.8100        38.025900        3.0373300
       6127.3300        38.008500        2.9549400
       6226.4400        37.990500        2.8746700
       6327.1500        37.971900        2.7965400
       6429.4800        37.952700        2.7204400
       6533.4800        37.933000        2.6463500
       6639.1500        37.912900        2.5742500
       6746.5400        37.892300        2.5040200
       6855.6500        37.871200        2.4356700
       6966.5400        37.849700        2.3691700
       7079.2200        37.827900        2.3044100
       7193.7200        37.805600        2.2413200
       7310.0700        37.783100        2.1800400
       7428.3100        37.760200        2.1203500
       7548.4500        37.737000        2.0621600
       7670.5400        37.713500        2.0056300
       7794.6100        37.689700        1.9505400
       7920.6800        37.665500        1.8969700
       8048.7900        37.641100        1.8449000
       8178.9800        37.616500        1.7941900
       8311.2600        37.591600        1.7447800
       8445.6900        37.566300        1.6967200
       8582.2900        37.540700        1.6499700
       8721.1100        37.514800        1.6044700
       8862.1600        37.488600        1.5602000
       9005.5000        37.462100        1.5171300
       9151.1600        37.435200        1.4752000
       9299.1700        37.407900        1.4344100
       9449.5800        37.380300        1.3947200
       9602.4200        37.352200        1.3561100
       9757.7300        37.323600        1.3185300
       9915.5500        37.294500        1.2819500
       10075.900        37.264800        1.2463800
       10238.900        37.234500        1.2117600
       10404.500        37.203600        1.1780800
       10572.800        37.171900        1.1453000
       10743.800        37.139400        1.1134100
       10917.600        37.105900        1.0823800
       11094.200        37.071500        1.0521900
       11273.600        37.035900        1.0228100
       11455.900        36.999000       0.99422200
       11641.200        36.960700       0.96640600
       11829.500        36.920800       0.93933900
       12020.800        36.879100       0.91300200
       12215.300        36.835200       0.88737400
       12412.800        36.789000       0.86243600
       12613.600        36.739900       0.83816900
       12817.600        36.687700       0.81455500
       13025.000        36.631600       0.79157500
       13235.600        36.571100       0.76921400
       13449.700        36.505300       0.74745300
       13667.200        36.432900       0.72627500
       13888.300        36.352600       0.70566700
       14112.900        36.262200       0.68561000
       14341.200        36.158900       0.66609100
       14573.100        36.038500       0.64709400
       14808.900        35.894600       0.62860600
       15048.400        35.716400       0.61061100
       15291.800        35.484100       0.59309800
       15539.100        35.155100       0.57605200
       15790.400        34.605800       0.55945900
       16045.800        32.962800       0.54331000
       16104.500        26.457100       0.53970200
       16104.700        26.457300        3.7573300
       16305.400        34.320000        3.6875200
       16569.100        35.234400        3.5989900
       16837.100        35.741300        3.5119400
       17109.400        36.095600        3.4263900
       17386.100        36.368100        3.3423400
       17667.400        36.588900        3.2598100
       17953.100        36.773700        3.1788000
       18243.500        36.931800        3.0993200
       18538.600        37.069200        3.0213600
       18838.400        37.190000        2.9449200
       19143.100        37.297200        2.8700000
       19452.700        37.393000        2.7966000
       19767.400        37.479000        2.7246900
       20087.100        37.556600        2.6542900
       20412.000        37.626800        2.5853700
       20742.100        37.690600        2.5179300
       21077.600        37.748600        2.4519400
       21418.500        37.801400        2.3874000
       21765.000        37.849600        2.3242900
       22117.000        37.893600        2.2625900
       22474.700        37.933800        2.2022900
       22838.200        37.970500        2.1433600
       23207.600        38.004000        2.0858000
       23583.000        38.034600        2.0295700
       23964.400        38.062500        1.9746600
       24352.000        38.088000        1.9210500
       24745.900        38.111200        1.8687300
       25146.200        38.132300        1.8176600
       25552.900        38.151400        1.7678200
       25966.200        38.168700        1.7192000
       26386.100        38.184300        1.6717800
       26812.900        38.198400        1.6255300
       27246.600        38.211000        1.5804300
       27687.300        38.222300        1.5364500
       28135.100        38.232400        1.4935900
       28590.200        38.241300        1.4518100
       29052.600        38.249400        1.4110900
       29522.500        38.260200        1.3714200
       30000.000        38.249900        1.3327600
       30400.000        38.244000        1.2781800
       30800.000        38.247600        1.2490100
       31200.000        38.250600        1.2208700
       31500.000        38.252700        1.2004100
       31900.000        38.254900        1.1736000
       32300.000        38.256600        1.1477200
       32600.000        38.257600        1.1288800
       33000.000        38.258700        1.1045100
       33400.000        38.259200        1.0808500
       33800.000        38.259700        1.0579700
       34100.000        38.259600        1.0413000
       34500.000        38.259500        1.0197100
       34900.000        38.259100       0.99880200
       35300.000        38.258600       0.97852300
       35700.000        38.257700       0.95886700
       36030.000        38.257000       0.94310900
       36500.000        38.255700       0.92135100
       37000.000        38.254200       0.89905000
       37500.000        38.252400       0.87757700
       38000.000        38.250700       0.85689200
       38500.000        38.248600       0.83670700
       39000.000        38.246500       0.81724900
       39500.000        38.244200       0.79848300
       40000.000        38.241800       0.78037600
       40800.000        38.237600       0.75241500
       41500.000        38.233900       0.72919700
       42300.000        38.229200       0.70398900
       43000.000        38.225200       0.68301700
       43800.000        38.220300       0.66015300
       44500.000        38.216100       0.64110000
       45300.000        38.211100       0.62030700
       46000.000        38.206800       0.60290100
       46500.000        38.203700       0.59092400
       47000.000        38.200600       0.57930900
       47500.000        38.197500       0.56804100
       48000.000        38.194400       0.55710800
       48500.000        38.191300       0.54639900
       49000.000        38.188300       0.53600400
       49500.000        38.185200       0.52590800
       50000.000        38.182100       0.51610200
       50500.000        38.179100       0.50652600
       51000.000        38.176000       0.49722000
       51500.000        38.173000       0.48817400
       52000.000        38.169900       0.47937700
       52500.000        38.167000       0.47082000
       53000.000        38.164000       0.46249500
       54000.000        38.158000       0.44647000
       55000.000        38.152300       0.43128000
       56000.000        38.146600       0.41678200
       56800.000        38.142100       0.40571300
       57530.000        38.138000       0.39599900
       58000.000        38.135500       0.38993100
       58500.000        38.132700       0.38363100
       59540.000        38.127200       0.37101400
       59800.000        38.125800       0.36795900
       60000.000        38.124800       0.36563500
       60800.000        38.120700       0.35648400
       61500.000        38.117100       0.34876000
       62300.000        38.113100       0.34024000
       63000.000        38.109700       0.33304200
       64000.000        38.104900       0.32315500
       65000.000        38.100100       0.31370800
       65900.000        38.096000       0.30552300
       66830.000        38.091700       0.29740200
       67400.000        38.089200       0.29258600
       68000.000        38.086500       0.28764300
       69000.000        38.082300       0.27968200
       70000.000        38.078000       0.27205200
       71000.000        38.073900       0.26468400
       72000.000        38.069900       0.25761500
       72800.000        38.066800       0.25216300
       73500.000        38.064100       0.24753600
       74200.000        38.061400       0.24303600
       74960.000        38.058500       0.23828900
       75500.000        38.056500       0.23499200
       76000.000        38.054700       0.23200000
       77110.000        38.050700       0.22556200
       78600.000        38.045500       0.21733500
       79300.000        38.043200       0.21362700
       80000.000        38.040800       0.21001300
       81500.000        38.036000       0.20253000
       83000.000        38.031200       0.19544400
       84000.000        38.028200       0.19092500
       85000.000        38.025200       0.18656300
       86500.000        38.020900       0.18029700
       88000.000        38.016600       0.17434400
       89000.000        38.013900       0.17053800
       90000.000        38.011200       0.16685700
       91500.000        38.007400       0.16153600
       93000.000        38.003600       0.15646700
       94000.000        38.001200       0.15322000
       95000.000        37.998800       0.15007400
       96500.000        37.995300       0.14552300
       98000.000        37.991900       0.14117600
       99000.000        37.989700       0.13838700
       99500.000        37.988600       0.13702300
       100000.00        37.987500       0.13568000
