;  Atomic scattering factors for Ta.
;   
;  Concatenation of data from CXRO <http://www-cxro.lbl.gov>
;  and LLNL <http://www-phys.llnl.gov/V_Div/scattering/asf.html>
;  
;  E (eV) f1 f2
;---------------
       10.000000       -9999.0000        3.1372000
       10.161700       -9999.0000        3.2522800
       10.326100       -9999.0000        3.3715900
       10.493100       -9999.0000        3.4951700
       10.662800       -9999.0000        3.6219900
       10.835300       -9999.0000        3.7534200
       11.010600       -9999.0000        3.8896200
       11.188600       -9999.0000        4.0307500
       11.369600       -9999.0000        4.1770100
       11.553500       -9999.0000        4.3246800
       11.740400       -9999.0000        4.4698800
       11.930300       -9999.0000        4.6199500
       12.123200       -9999.0000        4.7750700
       12.319300       -9999.0000        4.9353900
       12.518600       -9999.0000        5.1010900
       12.721000       -9999.0000        5.2402600
       12.926800       -9999.0000        5.3771300
       13.135900       -9999.0000        5.5175900
       13.348300       -9999.0000        5.6617100
       13.564200       -9999.0000        5.8096000
       13.783600       -9999.0000        5.9613500
       14.006600       -9999.0000        6.0733800
       14.233100       -9999.0000        6.1535800
       14.463300       -9999.0000        6.2348300
       14.697300       -9999.0000        6.3171700
       14.935000       -9999.0000        6.4005800
       15.176500       -9999.0000        6.4828000
       15.422000       -9999.0000        6.5599200
       15.671400       -9999.0000        6.6379500
       15.924900       -9999.0000        6.7169100
       16.182500       -9999.0000        6.7968000
       16.444200       -9999.0000        6.8615400
       16.710200       -9999.0000        6.8468600
       16.980500       -9999.0000        6.8322100
       17.255100       -9999.0000        6.8176000
       17.534200       -9999.0000        6.8030200
       17.817800       -9999.0000        6.7378200
       18.106000       -9999.0000        6.6635800
       18.398900       -9999.0000        6.5901400
       18.696400       -9999.0000        6.5175200
       18.998800       -9999.0000        6.4457000
       19.306100       -9999.0000        6.3706700
       19.618400       -9999.0000        6.2955200
       19.935700       -9999.0000        6.2212600
       20.258200       -9999.0000        6.1478800
       20.585800       -9999.0000        6.0753700
       20.918800       -9999.0000        6.0037100
       21.257100       -9999.0000        5.9328800
       21.600900       -9999.0000        5.8629000
       21.950300       -9999.0000        5.7937500
       22.305300       -9999.0000        5.7254100
       22.666100       -9999.0000        5.6452900
       23.032700       -9999.0000        5.5400400
       23.405300       -9999.0000        5.4367400
       23.783800       -9999.0000        5.3353800
       24.168500       -9999.0000        5.2359000
       24.559400       -9999.0000        5.1522200
       24.956600       -9999.0000        5.0769000
       25.360300       -9999.0000        5.0026900
       25.770500       -9999.0000        4.9295600
       26.187300       -9999.0000        4.8575000
       26.610900       -9999.0000        4.7865000
       27.041300       -9999.0000        4.7198500
       27.478600       -9999.0000        4.6786100
       27.923100       -9999.0000        4.6377200
       28.374700       -9999.0000        4.5972000
       28.833700       -9999.0000        4.5559000
       29.300000        1.9782400        4.5098800
       29.773900        1.6772600        4.4643300
       30.255500        1.3373300        4.5536100
       30.744900        1.0158000        4.6526900
       31.242100       0.64724200        4.7539300
       31.747500       0.21445600        5.0201300
       32.260900      -0.11906900        5.3677400
       32.782700      -0.40513500        5.7394100
       33.313000      -0.65948400        6.1368100
       33.851800      -0.88758600        6.5617400
       34.399300       -1.0920000        7.0169700
       34.955700       -1.2673100        7.5104300
       35.521100       -1.4081800        8.0385800
       36.095600       -1.5097800        8.6038900
       36.679400       -1.5630600        9.2089300
       37.272700       -1.5366900        9.8565400
       37.875500       -1.3699300        10.463000
       38.488200       -1.2406100        11.017400
       39.110700       -1.0993700        11.601100
       39.743200      -0.90936100        12.215700
       40.386100      -0.63526800        12.862900
       41.039300      -0.26785900        13.425100
       41.703100      0.081963700        13.963000
       42.377600       0.46300600        14.522400
       43.063000       0.91165300        15.104200
       43.759500        1.5022000        15.678700
       44.467300        2.1131100        16.059600
       45.186500        2.7020800        16.449700
       45.917400        3.3313700        16.849300
       46.660000        4.0961600        17.176300
       47.414700        4.7968600        17.344400
       48.181600        5.4621900        17.514100
       48.960900        6.1344500        17.685500
       49.752800        6.8589600        17.858500
       50.557600        7.7230400        18.033300
       51.375300        8.6263900        17.867400
       52.206200        9.3718000        17.649100
       53.050600        10.070800        17.433600
       53.908700        10.809900        17.220600
       54.780600        11.564600        16.763700
       55.666700        12.113600        16.232300
       56.567000        12.547900        15.717900
       57.482000        12.900700        15.219700
       58.411700        13.179100        14.737300
       59.356400        13.407700        14.310900
       60.316500        13.613600        13.900400
       61.292100        13.793100        13.501700
       62.283400        13.944300        13.114400
       63.290800        14.068600        12.738300
       64.314500        14.166900        12.372900
       65.354700        14.240100        12.018000
       66.411800        14.288300        11.673300
       67.485900        14.310900        11.338500
       68.577500        14.305900        11.013300
       69.686700        14.267100        10.697300
       70.813800        14.170100        10.393700
       71.959100        14.067200        10.199300
       73.123000        13.985200        10.008600
       74.305700        13.900100        9.8283500
       75.507600        13.817600        9.6605000
       76.728900        13.728200        9.4955200
       77.969900        13.617300        9.3333400
       79.231000        13.448900        9.1739400
       80.512500        13.283400        9.1448900
       81.814700        13.170400        9.1232700
       83.138000        13.079200        9.1017000
       84.482700        12.999000        9.0801800
       85.849100        12.924300        9.0587200
       87.237700        12.850500        9.0373100
       88.648700        12.770500        9.0188100
       90.082500        12.693500        9.0138100
       91.539500        12.618700        9.0088200
       93.020100        12.541300        9.0038300
       94.524600        12.456800        8.9988400
       96.053500        12.360100        8.9938600
       97.607100        12.237100        8.9888800
       99.185800        12.035100        9.0386200
       100.79000        11.896500        9.1672700
       102.42000        11.800500        9.2977600
       104.07700        11.720600        9.4301000
       105.76000        11.652200        9.5643300
       107.47100        11.592000        9.7004600
       109.20900        11.537100        9.8385300
       110.97500        11.483400        9.9785700
       112.77000        11.418700        10.120600
       114.59400        11.349700        10.303800
       116.44800        11.311200        10.506700
       118.33100        11.292800        10.713700
       120.24500        11.290300        10.924700
       122.19000        11.303800        11.139900
       124.16600        11.335700        11.359400
       126.17500        11.401100        11.570200
       128.21500        11.458900        11.752000
       130.28900        11.512800        11.936600
       132.39700        11.567900        12.124200
       134.53800        11.626700        12.314700
       136.71400        11.690400        12.508100
       138.92500        11.761200        12.704600
       141.17200        11.848100        12.902300
       143.45600        11.932700        13.079100
       145.77600        12.006300        13.258400
       148.13400        12.076500        13.452200
       150.53000        12.155800        13.654300
       152.96400        12.241900        13.859400
       155.43900        12.334000        14.067700
       157.95300        12.432200        14.279000
       160.50700        12.537400        14.493600
       163.10300        12.653200        14.711400
       165.74200        12.789900        14.913200
       168.42200        12.904900        15.095300
       171.14600        12.984800        15.297000
       173.91500        13.071100        15.525800
       176.72700        13.176800        15.788800
       179.58600        13.304400        16.057500
       182.49100        13.451900        16.330700
       185.44200        13.617600        16.608000
       188.44200        13.805000        16.889800
       191.48900        14.030500        17.168300
       194.58700        14.262100        17.409600
       197.73400        14.498600        17.641200
       200.93200        14.728900        17.864900
       204.18200        14.961600        18.091300
       207.48500        15.203100        18.320800
       210.84000        15.467000        18.553500
       214.25100        15.737500        18.748800
       217.71600        16.004100        18.937800
       221.23700        16.261600        19.122200
       224.81600        16.517000        19.307900
       228.45200        16.773000        19.495700
       232.14700        17.031600        19.685400
       235.90200        17.294500        19.877400
       239.71700        17.562700        20.071000
       243.59500        17.837200        20.266200
       247.53500        18.118800        20.462900
       251.53800        18.408600        20.661800
       255.60700        18.708900        20.863000
       259.74100        19.022300        21.066300
       263.94200        19.352100        21.271300
       268.21100        19.703100        21.478000
       272.54900        20.089800        21.686900
       276.95700        20.551700        21.841800
       281.43700        20.990200        21.926800
       285.98900        21.389000        21.966600
       290.61500        21.758100        22.000200
       295.31500        22.105000        22.033800
       300.09200        22.439300        22.067700
       304.94500        22.763900        22.101700
       309.87800        23.080600        22.135500
       314.89000        23.390500        22.169400
       319.98300        23.694800        22.203200
       325.15800        23.993700        22.236900
       330.41800        24.288000        22.271100
       335.76200        24.578200        22.305300
       341.19200        24.864200        22.339200
       346.71100        25.145700        22.373300
       352.31900        25.422700        22.407600
       358.01700        25.695500        22.442400
       363.80800        25.963000        22.476900
       369.69200        26.224200        22.511200
       375.67200        26.475900        22.545100
       381.74800        26.714500        22.580200
       387.92200        26.933200        22.618800
       394.19700        27.092300        22.664600
       400.57300        27.240900        22.830600
       407.05200        27.465500        23.046300
       413.63500        27.741100        23.265400
       420.32600        28.055200        23.485200
       427.12400        28.404500        23.706900
       434.03200        28.793300        23.931500
       441.05200        29.228100        24.158100
       448.18600        29.797700        24.360400
       455.43500        30.377300        24.430900
       462.80200        30.934100        24.407000
       470.28700        31.428500        24.332600
       477.89400        31.869000        24.259200
       485.62300        32.286400        24.185600
       493.47800        32.686700        24.111800
       501.45900        33.073000        24.037500
       509.57000        33.449200        23.963900
       517.81200        33.824300        23.886100
       526.18700        34.190300        23.791700
       534.69800        34.527500        23.665000
       543.34600        34.792100        23.522900
       552.13400        34.890100        23.382600
       561.06500        34.946700        23.702400
       570.13900        35.510200        24.183900
       579.36100        36.227000        24.195500
       588.73200        36.894500        24.065900
       598.25400        37.433500        23.847500
       607.93000        37.903400        23.631100
       617.76300        38.336300        23.416500
       627.75500        38.748900        23.202700
       637.90800        39.145600        22.978100
       648.22600        39.522200        22.736800
       658.71100        39.863700        22.485800
       669.36500        40.169500        22.237400
       680.19100        40.445900        22.025700
       691.19300        40.732500        21.841700
       702.37200        41.055300        21.661400
       713.73300        41.388300        21.438600
       725.27700        41.687400        21.188000
       737.00800        41.962600        20.940200
       748.92800        42.222800        20.695100
       761.04200        42.472100        20.452700
       773.35100        42.714100        20.210400
       785.85900        42.947600        19.962900
       798.57000        43.165300        19.711900
       811.48600        43.370000        19.463700
       824.61100        43.564300        19.218500
       837.94900        43.751300        18.976500
       851.50200        43.931100        18.733000
       865.27400        44.102700        18.487800
       879.26900        44.261900        18.241600
       893.49100        44.411100        17.998500
       907.94300        44.552900        17.758600
       922.62800        44.694100        17.521900
       937.55100        44.825700        17.269500
       952.71500        44.943600        17.015800
       968.12400        45.044900        16.761500
       983.78300        45.133500        16.510900
       999.69500        45.211900        16.262700
       1015.8600        45.283000        16.017000
       1032.2900        45.341400        15.763300
       1048.9900        45.385200        15.510000
       1065.9600        45.411400        15.256800
       1083.2000        45.421800        15.007600
       1100.7200        45.417400        14.762300
       1118.5200        45.398600        14.520900
       1136.6100        45.365500        14.283300
       1155.0000        45.317900        14.049400
       1173.6800        45.255500        13.819300
       1192.6600        45.177900        13.592400
       1211.9500        45.084500        13.369300
       1231.5500        44.976700        13.149900
       1251.4700        44.852900        12.928200
       1271.7200        44.709500        12.704300
       1292.2900        44.537500        12.476900
       1313.1900        44.336100        12.253200
       1334.4300        44.104900        12.033400
       1356.0100        43.841800        11.817600
       1377.9400        43.543600        11.605300
       1400.2300        43.206100        11.396800
       1422.8800        42.824600        11.192100
       1445.8900        42.392200        10.990400
       1469.2800        41.900400        10.791800
       1493.0400        41.338900        10.596100
       1517.1900        40.690200        10.399800
       1541.7300        39.933000        10.206500
       1566.6700        39.038800        10.016800
       1592.0100        37.965300        9.8304800
       1617.7600        36.645100        9.6475200
       1643.9200        34.962300        9.4678300
       1670.5100        32.690500        9.2915400
       1697.5300        29.269700        9.1183000
       1724.9900        22.096800        8.9478200
       1735.0000        4.2435900        8.8871000
       1735.2000        4.1516500        19.727500
       1752.8900        19.001600        23.004100
       1781.2400        20.140600        29.335300
       1810.0500        26.401000        37.409100
       1839.3200        33.820000        38.246400
       1869.0700        38.070600        37.368400
       1899.3000        41.041000        36.510500
       1930.0200        43.337400        35.671400
       1961.2400        45.188500        34.851500
       1992.9600        46.705300        34.050300
       2025.2000        47.957800        33.275000
       2057.9500        48.973600        32.509900
       2091.2400        49.746000        31.762300
       2125.0600        50.218100        31.031300
       2159.4300        50.145400        30.317800
       2193.9000        41.884100        29.629800
       2194.1000        41.891400        34.592700
       2194.3600        43.931100        34.586200
       2229.8500        52.093100        33.728600
       2265.9200        53.921900        32.892600
       2302.5700        55.184400        32.076700
       2339.8100        56.150800        31.281700
       2377.6600        56.892100        30.507200
       2416.1100        57.386200        29.751100
       2455.1900        57.283000        29.014200
       2468.6000        54.477400        28.768200
       2468.8000        54.481000        30.712800
       2494.9000        58.358500        30.225200
       2535.2600        59.505400        29.496200
       2576.2600        60.286300        28.784200
       2617.9300        60.878400        28.089700
       2660.2700        61.283700        27.413300
       2703.3000        60.985600        26.752600
       2707.9000        59.812900        26.683500
       2708.1000        59.822100        27.756000
       2747.0300        62.226100        27.231300
       2791.4600        62.947600        26.653200
       2836.6100        63.531400        26.083600
       2882.4900        64.043400        25.521400
       2929.1100        64.504500        24.968000
       2976.4800        64.926000        24.423700
       3024.6300        65.313100        23.887200
       3073.5500        65.670500        23.360500
       3123.2600        66.001400        22.842200
       3173.7800        66.308000        22.333000
       3225.1100        66.592200        21.832700
       3277.2700        66.855900        21.341600
       3330.2800        67.100300        20.859200
       3384.1500        67.327200        20.386700
       3438.8800        67.537600        19.922400
       3494.5000        67.732200        19.467300
       3551.0200        67.912600        19.021300
       3608.4600        68.079300        18.583600
       3666.8200        68.232700        18.154700
       3726.1300        68.374300        17.734800
       3786.4000        68.503900        17.322700
       3847.6400        68.622600        16.920000
       3909.8700        68.731400        16.525300
       3973.1100        68.830400        16.138800
       4037.3800        68.920200        15.760400
       4102.6800        69.001200        15.390100
       4169.0300        69.073900        15.027600
       4236.4600        69.138700        14.672900
       4304.9800        69.196100        14.325800
       4374.6200        69.246300        13.986200
       4445.3700        69.289700        13.653900
       4517.2700        69.326500        13.328900
       4590.3300        69.357300        13.011300
       4664.5800        69.382200        12.700400
       4740.0300        69.401300        12.396500
       4816.6900        69.415000        12.099400
       4894.6000        69.423500        11.808800
       4973.7700        69.427100        11.524800
       5054.2100        69.425800        11.247100
       5135.9600        69.419800        10.975800
       5219.0300        69.409400        10.710500
       5303.4400        69.394600        10.451500
       5389.2200        69.375600        10.198100
       5476.3900        69.352500        9.9507400
       5564.9700        69.325600        9.7090500
       5654.9800        69.294600        9.4726500
       5746.4400        69.259700        9.2419700
       5839.3900        69.221000        9.0166300
       5933.8300        69.178600        8.7964900
       6029.8100        69.132400        8.5814600
       6127.3300        69.082400        8.3713800
       6226.4400        69.028600        8.1663700
       6327.1500        68.971100        7.9662300
       6429.4800        68.909700        7.7707200
       6533.4800        68.844300        7.5797700
       6639.1500        68.774700        7.3933900
       6746.5400        68.701000        7.2114400
       6855.6500        68.622700        7.0336200
       6966.5400        68.539600        6.8603200
       7079.2200        68.451700        6.6911000
       7193.7200        68.358400        6.5257400
       7310.0700        68.259300        6.3645500
       7428.3100        68.154100        6.2071300
       7548.4500        68.041900        6.0534100
       7670.5400        67.922200        5.9035800
       7794.6100        67.794000        5.7572000
       7920.6800        67.656200        5.6143500
       8048.7900        67.507400        5.4750100
       8178.9800        67.346100        5.3391100
       8311.2600        67.170100        5.2064600
       8445.6900        66.976700        5.0770500
       8582.2900        66.761800        4.9503900
       8721.1100        66.520500        4.8272000
       8862.1600        66.245900        4.7068600
       9005.5000        65.927100        4.5894200
       9151.1600        65.547500        4.4748900
       9299.1700        65.079000        4.3631800
       9449.5800        64.466400        4.2540400
       9602.4200        63.578700        4.1476500
       9757.7300        61.947200        4.0438400
       9881.0000        47.473400        3.9644200
       9881.2000        47.474700        10.420700
       9915.5500        59.441200        10.354200
       10075.900        63.015100        10.052700
       10238.900        64.184300        9.7599100
       10404.500        64.809400        9.4756700
       10572.800        65.137100        9.1997000
       10743.800        65.215700        8.9317800
       10917.600        64.957500        8.6716500
       11094.200        63.484500        8.4191100
       11136.000        57.050600        8.3609200
       11136.200        57.052000        11.758800
       11273.600        65.018000        11.490200
       11455.900        65.975800        11.148100
       11641.200        65.966100        10.816200
       11681.400        63.530200        10.746200
       11681.600        63.530700        12.083100
       11829.500        67.038600        11.872300
       12020.800        67.832700        11.608800
       12215.300        68.404900        11.348800
       12412.800        68.870100        11.092300
       12613.600        69.266000        10.839500
       12817.600        69.611200        10.590500
       13025.000        69.916800        10.345300
       13235.600        70.190000        10.103900
       13449.700        70.436000        9.8665600
       13667.200        70.658800        9.6331600
       13888.300        70.861200        9.4037900
       14112.900        71.045700        9.1784600
       14341.200        71.214200        8.9572000
       14573.100        71.368300        8.7400000
       14808.900        71.509400        8.5268900
       15048.400        71.638700        8.3178400
       15291.800        71.757200        8.1128600
       15539.100        71.865700        7.9119400
       15790.400        71.965200        7.7150300
       16045.800        72.056200        7.5221500
       16305.400        72.139300        7.3332300
       16569.100        72.215300        7.1482700
       16837.100        72.284500        6.9672300
       17109.400        72.347400        6.7900600
       17386.100        72.404500        6.6167300
       17667.400        72.456200        6.4471900
       17953.100        72.502700        6.2814000
       18243.500        72.544600        6.1193100
       18538.600        72.581900        5.9608800
       18838.400        72.615100        5.8060500
       19143.100        72.644400        5.6547700
       19452.700        72.670100        5.5069900
       19767.400        72.692300        5.3626500
       20087.100        72.711300        5.2217000
       20412.000        72.727300        5.0840800
       20742.100        72.740500        4.9497400
       21077.600        72.751000        4.8186100
       21418.500        72.759000        4.6906500
       21765.000        72.764700        4.5658000
       22117.000        72.768300        4.4439900
       22474.700        72.769800        4.3251700
       22838.200        72.769300        4.2092900
       23207.600        72.767100        4.0962800
       23583.000        72.763200        3.9860800
       23964.400        72.757700        3.8786500
       24352.000        72.750700        3.7739200
       24745.900        72.742400        3.6718500
       25146.200        72.732700        3.5723600
       25552.900        72.721900        3.4754100
       25966.200        72.709900        3.3809500
       26386.100        72.696800        3.2889100
       26812.900        72.682800        3.1992500
       27246.600        72.667800        3.1119100
       27687.300        72.652000        3.0268400
       28135.100        72.635400        2.9439900
       28590.200        72.618200        2.8633100
       29052.600        72.600700        2.7847500
       29522.500        72.589800        2.7082500
       30000.000        72.539200        2.6337800
       30400.000        72.470600        2.5922600
       30800.000        72.454700        2.5342600
       31200.000        72.438200        2.4782700
       31500.000        72.425900        2.4375500
       31900.000        72.409200        2.3848800
       32300.000        72.392600        2.3339800
       32600.000        72.380000        2.2969200
       33000.000        72.363300        2.2489300
       33400.000        72.346500        2.2024200
       33800.000        72.329700        2.1574100
       34100.000        72.317100        2.1246000
       34500.000        72.300300        2.0820500
       34900.000        72.283600        2.0408400
       35300.000        72.266800        2.0007700
       35700.000        72.250100        1.9618900
       36030.000        72.236300        1.9307000
       36500.000        72.216600        1.8876000
       37000.000        72.195800        1.8434000
       37500.000        72.174900        1.8008000
       38000.000        72.154100        1.7597300
       38400.000        72.137500        1.7277500
       38800.000        72.120900        1.6966600
       39200.000        72.104300        1.6664500
       39621.400        72.086800        1.6355300
       39800.000        72.079400        1.6226900
       40000.000        72.071100        1.6085100
       40800.000        72.037900        1.5533700
       41500.000        72.008800        1.5075200
       42300.000        71.975300        1.4576600
       43000.000        71.946000        1.4161300
       43800.000        71.912300        1.3707800
       44500.000        71.882800        1.3329300
       45300.000        71.848500        1.2915900
       46000.000        71.818500        1.2569500
       46500.000        71.796700        1.2330900
       47000.000        71.774900        1.2099300
       47500.000        71.752600        1.1874400
       48000.000        71.730400        1.1656000
       48500.000        71.707600        1.1443800
       49000.000        71.684900        1.1237600
       49500.000        71.661700        1.1037200
       50000.000        71.638200        1.0842300
       51000.000        71.590100        1.0466900
       51500.000        71.565300        1.0289200
       52000.000        71.540100        1.0111400
       52500.000        71.514300       0.99429300
       53000.000        71.487900       0.97744500
       53500.000        71.460800       0.96145800
       54000.000        71.433100       0.94547000
       54500.000        71.404500       0.93028500
       55000.000        71.375100       0.91510000
       55500.000        71.344800       0.90061100
       56000.000        71.313300       0.88612200
       56400.000        71.287300       0.87503900
       56800.000        71.260400       0.86395600
       57200.000        71.232700       0.85328200
       57530.000        71.209100       0.84447600
       57800.000        71.189200       0.83747800
       58000.000        71.174200       0.83229400
       58500.000        71.135300       0.81963300
       59000.000        71.094300       0.80742500
       59540.000        71.047300       0.79424100
       59800.000        71.023600       0.78808400
       59900.000        71.014300       0.78574100
       60000.000        71.004900       0.78339900
       60400.000        70.965800       0.77421200
       60800.000        70.924500       0.76502400
       61100.000        70.891900       0.75836700
       61500.000        70.845900       0.74949200
       61700.000        70.821800       0.74520200
       61900.000        70.796800       0.74091300
       62100.000        70.770800       0.73662300
       62300.000        70.743900       0.73233300
       62450.000        70.723000       0.72922200
       62600.000        70.701500       0.72611200
       62800.000        70.671700       0.72196400
       63000.000        70.640500       0.71781700
       63300.000        70.591100       0.71182500
       63500.000        70.556000       0.70783000
       63800.000        70.500000       0.70183800
       64000.000        70.459900       0.69784300
       64300.000        70.395200       0.69210700
       64400.000        70.372200       0.69019500
       64500.000        70.348500       0.68828300
       64650.000        70.311400       0.68541500
       64800.000        70.272100       0.68254700
       64900.000        70.244700       0.68063500
       65000.000        70.216200       0.67872300
       65150.000        70.171200       0.67597000
       65300.000        70.123100       0.67321600
       65400.000        70.089200       0.67138100
       65500.000        70.053600       0.66954500
       65600.000        70.016200       0.66771000
       65700.000        69.976700       0.66587400
       65800.000        69.935000       0.66403900
       65900.000        69.890700       0.66220300
       65970.000        69.858000       0.66096700
       66050.000        69.818800       0.65955400
       66130.000        69.777400       0.65814200
       66200.000        69.739200       0.65690600
       66250.000        69.710600       0.65602300
       66300.000        69.680900       0.65514000
       66400.000        69.617700       0.65337400
       66450.000        69.584000       0.65249100
       66500.000        69.548700       0.65160800
       66550.000        69.511600       0.65072500
       66600.000        69.472700       0.64984200
       66650.000        69.431600       0.64895900
       66710.000        69.379200       0.64790000
       66770.000        69.322900       0.64684000
       66830.000        69.262200       0.64578100
       66850.000        69.240800       0.64543700
       66870.000        69.218800       0.64509400
       66910.000        69.172900       0.64440600
       66950.000        69.124100       0.64371900
       67000.000        69.058400       0.64286000
       67050.000        68.986600       0.64200100
       67070.000        68.956000       0.64165700
       67100.000        68.907600       0.64114100
       67130.000        68.856100       0.64062600
       67150.000        68.819700       0.64028200
       67180.000        68.761900       0.63976700
       67200.000        68.720800       0.63942300
       67230.000        68.655000       0.63891600
       67250.000        68.607800       0.63857700
       67270.000        68.557700       0.63823900
       67300.000        68.476000       0.63773100
       67320.000        68.416500       0.63739300
       67335.000        68.368800       0.63713900
       67350.000        68.318100       0.63688600
       67365.000        68.264000       0.63663200
       67380.000        68.206000       0.63637800
       67390.000        68.164800       0.63620900
       67400.000        68.121400       0.63604000
       67410.000        68.075600       0.63587100
       67420.000        68.027100       0.63570200
       67430.000        67.975400       0.63553300
       67440.000        67.920300       0.63536300
       67450.000        67.861000       0.63519400
       67460.000        67.797300       0.63502500
       67468.000        67.742300       0.63489000
       67475.000        67.691000       0.63477100
       67483.000        67.628100       0.63463600
       67490.000        67.568900       0.63451800
       67495.000        67.523800       0.63443300
       67500.000        67.476000       0.63434800
       67505.000        67.425200       0.63426400
       67510.000        67.371200       0.63417900
       67518.000        67.276500       0.63404400
       67522.000        67.224700       0.63397600
       67525.000        67.183700       0.63392600
       67529.000        67.125400       0.63385800
       67533.000        67.062800       0.63379000
       67537.000        66.995100       0.63372300
       67540.000        66.940400       0.63367200
       67543.000        66.881600       0.63362100
       67545.000        66.840100       0.63358700
       67548.000        66.773600       0.63353700
       67550.000        66.726100       0.63350300
       67553.000        66.649300       0.63345200
       67555.000        66.593800       0.63341800
       67557.000        66.534200       0.63338400
       67560.000        66.436400       0.63333400
       67563.000        66.325000       0.63328300
       67566.000        66.196700       0.63323200
       67569.000        66.045000       0.63318100
       67570.000        65.987600       0.63316400
       67571.000        65.925700       0.63314800
       67572.500        65.824500       0.63312200
       67574.000        65.708200       0.63309700
       67575.500        65.574200       0.63307100
       67577.000        65.414500       0.63304600
       67578.500        65.218400       0.63302100
       67580.000        64.962300       0.63299500
       67581.200        64.680100       0.63297500
       67582.500        64.186000       0.63295300
       67582.600        64.176500       0.71904300
       67582.800        64.170100       0.89122200
       67583.200        64.136700        1.2355800
       67583.800        64.039500        1.7521200
       67585.200        63.455400       0.63290800
       67585.700        62.734600       0.63289900
       67586.300        61.486600       0.63289000
       67587.600        64.625900        12.278300
       67588.700        67.064500       0.63285000
       67588.800        67.281400       0.63284700
       67589.000        67.734600       0.63284400
       67590.000        65.787400        1.9352100
       67591.400        64.918500        2.1568300
       67592.700        65.007000        3.4688800
       67594.000        65.658500        3.4173700
       67595.000        65.820400        3.3784300
       67596.000        65.933700        3.3399300
       67596.700        65.993700        3.3134500
       67597.500        66.052600        3.2926900
       67598.300        66.102400        3.2779200
       67599.000        66.145400        3.2648800
       67599.500        66.172100        3.2558100
       67600.000        66.197400        3.2467500
       67601.000        66.242800        3.2285000
       67602.500        66.301500        3.2173900
       67604.000        66.358300        3.2062700
       67605.000        66.391400        3.1989400
       67606.000        66.421800        3.1915400
       67607.000        66.449500        3.1903900
       67608.000        66.477400        3.1892200
       67609.000        66.502900        3.1880600
       67610.000        66.529500        3.1869100
       67611.500        66.565300        3.1899500
       67613.000        66.602900        3.1930200
       67615.000        66.649200        3.1971000
       67618.000        66.715700        3.2074100
       67620.000        66.759200        3.2143000
       67623.000        66.822400        3.2244600
       67625.000        66.863800        3.2312400
       67630.000        66.963200        3.2443000
       67635.000        67.056600        3.2521200
       67640.000        67.142800        3.2549900
       67645.000        67.220900        3.2541200
       67650.000        67.291300        3.2510500
       67655.000        67.354800        3.2472400
       67660.000        67.411900        3.2434300
       67665.000        67.464400        3.2411400
       67670.000        67.512800        3.2388500
       67675.000        67.558200        3.2388200
       67680.000        67.601500        3.2388000
       67690.000        67.683100        3.2411300
       67700.000        67.759300        3.2429600
       67710.000        67.830900        3.2447800
       67720.000        67.897700        3.2434100
       67730.000        67.958800        3.2420300
       67740.000        68.015500        3.2397300
       67750.000        68.067200        3.2374200
       67760.000        68.115600        3.2370900
       67770.000        68.161900        3.2367600
       67780.000        68.206200        3.2364200
       67790.000        68.248300        3.2360900
       67810.000        68.327100        3.2352000
       67830.000        68.399800        3.2343200
       67850.000        68.466900        3.2325100
       67870.000        68.528800        3.2307100
       67885.000        68.572300        3.2293500
       67900.000        68.613500        3.2280000
       67920.000        68.665500        3.2268600
       67940.000        68.714800        3.2257200
       67955.000        68.750200        3.2248700
       67970.000        68.784100        3.2240100
       68010.000        68.868900        3.2217300
       68050.000        68.946900        3.2194500
       68090.000        69.018600        3.2159200
       68130.000        69.084400        3.2123900
       68170.000        69.145300        3.2088600
       68200.000        69.187900        3.2062100
       68240.000        69.241700        3.2038700
       68280.000        69.292600        3.2015200
       68310.000        69.329200        3.1997600
       68350.000        69.375800        3.1974200
       68380.000        69.409400        3.1956600
       68420.000        69.452300        3.1933200
       68460.000        69.493400        3.1909700
       68500.000        69.533200        3.1886300
       68540.000        69.571300        3.1855900
       68580.000        69.607600        3.1825500
       68650.000        69.667600        3.1772300
       68730.000        69.731500        3.1711600
       68800.000        69.783800        3.1658400
       68880.000        69.840000        3.1601900
       68950.000        69.886500        3.1552500
       69020.000        69.930700        3.1503000
       69100.000        69.978800        3.1446600
       69170.000        70.018800        3.1397100
       69250.000        70.062500        3.1340600
       69330.000        70.104000        3.1284100
       69400.000        70.138600        3.1234700
       69470.000        70.171900        3.1193800
       69550.000        70.209000        3.1147100
       69700.000        70.275600        3.1059400
       69850.000        70.338400        3.0962700
       69920.000        70.366300        3.0917500
       70000.000        70.397700        3.0865900
       70150.000        70.453500        3.0754000
       70300.000        70.505500        3.0642200
       70400.000        70.538400        3.0567600
       70500.000        70.570100        3.0493000
       70650.000        70.615600        3.0383500
       70800.000        70.658700        3.0274000
       70900.000        70.686300        3.0201000
       71000.000        70.713000        3.0128000
       71150.000        70.751500        3.0021000
       71300.000        70.788300        2.9914000
       71400.000        70.811800        2.9842600
       71500.000        70.834500        2.9771300
       71650.000        70.867500        2.9673200
       71800.000        70.899400        2.9575100
       71900.000        70.920100        2.9509700
       72000.000        70.940300        2.9444300
       72200.000        70.979200        2.9323300
       72400.000        71.015800        2.9202300
       72600.000        71.051600        2.9081400
       72800.000        71.086300        2.8960400
       73000.000        71.120000        2.8842800
       73200.000        71.152600        2.8725100
       73350.000        71.176200        2.8636900
       73500.000        71.199200        2.8548700
       73700.000        71.228900        2.8432000
       73900.000        71.257700        2.8315400
       74050.000        71.278800        2.8227900
       74200.000        71.299400        2.8140400
       74400.000        71.326000        2.8023700
       74600.000        71.351800        2.7907100
       74800.000        71.377000        2.7790400
       74960.000        71.396700        2.7697100
       75080.000        71.411400        2.7625500
       75200.000        71.425600        2.7553800
       75500.000        71.459800        2.7374800
       75800.000        71.492300        2.7195700
       76000.000        71.513200        2.7076300
       76300.000        71.543400        2.6901800
       76600.000        71.572600        2.6727400
       76900.000        71.600400        2.6552900
       77110.000        71.619200        2.6430800
       77500.000        71.652500        2.6213900
       77700.000        71.668900        2.6102700
       77900.000        71.684800        2.5991500
       78100.000        71.700300        2.5880300
       78300.000        71.715500        2.5769100
       78600.000        71.737600        2.5602300
       79000.000        71.766000        2.5390500
       79300.000        71.786400        2.5231700
       79700.000        71.812600        2.5024700
       79850.000        71.822100        2.4947100
       80000.000        71.831400        2.4869500
       80400.000        71.855700        2.4671800
       80800.000        71.878900        2.4474000
       81200.000        71.901300        2.4276300
       81500.000        71.917500        2.4128000
       81900.000        71.938400        2.3939600
       82300.000        71.958400        2.3751200
       82700.000        71.977700        2.3562800
       83000.000        71.991500        2.3421500
       83300.000        72.005000        2.3287600
       83500.000        72.013900        2.3198400
       84000.000        72.035400        2.2975300
       84500.000        72.056000        2.2759000
       84800.000        72.068000        2.2629200
       85000.000        72.075800        2.2542700
       85400.000        72.091100        2.2375500
       85800.000        72.105800        2.2208400
       86200.000        72.120100        2.2041200
       86500.000        72.130500        2.1915800
       86900.000        72.144000        2.1756000
       87300.000        72.157000        2.1596300
       87700.000        72.169700        2.1436500
       88000.000        72.179000        2.1316700
       88300.000        72.188000        2.1201300
       88500.000        72.193900        2.1124300
       89000.000        72.208300        2.0931900
       89500.000        72.222200        2.0745100
       89800.000        72.230400        2.0632900
       90000.000        72.235700        2.0558200
       90400.000        72.246200        2.0411900
       90800.000        72.256300        2.0265600
       91200.000        72.266100        2.0119200
       91500.000        72.273200        2.0009500
       91900.000        72.282400        1.9869400
       92300.000        72.291400        1.9729200
       92700.000        72.300100        1.9589100
       93000.000        72.306500        1.9484000
       93500.000        72.316800        1.9314900
       94000.000        72.326800        1.9145900
       94500.000        72.336500        1.8981500
       95000.000        72.346000        1.8817100
       95400.000        72.353400        1.8687300
       95800.000        72.360400        1.8557500
       96200.000        72.367200        1.8427700
       96500.000        72.372200        1.8330400
       97300.000        72.384900        1.8081400
       98000.000        72.395300        1.7863600
       98500.000        72.402500        1.7713200
       99000.000        72.409500        1.7562800
       99500.000        72.416200        1.7416400
       99800.000        72.420100        1.7328600
       100000.00        72.422700        1.7270000
