;  Atomic scattering factors for Tb.
;   
;  Concatenation of data from CXRO <http://www-cxro.lbl.gov>
;  and LLNL <http://www-phys.llnl.gov/V_Div/scattering/asf.html>
;  
;  E (eV) f1 f2
;---------------
       10.000000       -9999.0000       0.15974200
       10.161700       -9999.0000       0.16624500
       10.326100       -9999.0000       0.17301200
       10.493100       -9999.0000       0.18005500
       10.662800       -9999.0000       0.18738500
       10.835300       -9999.0000       0.19501300
       11.010600       -9999.0000       0.20295200
       11.188600       -9999.0000       0.21121400
       11.369600       -9999.0000       0.21981200
       11.553500       -9999.0000       0.22822600
       11.740400       -9999.0000       0.23675100
       11.930300       -9999.0000       0.24559400
       12.123200       -9999.0000       0.25476800
       12.319300       -9999.0000       0.26428500
       12.518600       -9999.0000       0.27391000
       12.721000       -9999.0000       0.28371200
       12.926800       -9999.0000       0.29386400
       13.135900       -9999.0000       0.30437900
       13.348300       -9999.0000       0.31527000
       13.564200       -9999.0000       0.32655200
       13.783600       -9999.0000       0.33773700
       14.006600       -9999.0000       0.34827600
       14.233100       -9999.0000       0.35914400
       14.463300       -9999.0000       0.37035200
       14.697300       -9999.0000       0.38190900
       14.935000       -9999.0000       0.39382600
       15.176500       -9999.0000       0.40571900
       15.422000       -9999.0000       0.41745100
       15.671400       -9999.0000       0.42952100
       15.924900       -9999.0000       0.44194100
       16.182500       -9999.0000       0.45472000
       16.444200       -9999.0000       0.46786800
       16.710200       -9999.0000       0.48174500
       16.980500       -9999.0000       0.49635900
       17.255100       -9999.0000       0.51141600
       17.534200       -9999.0000       0.52693000
       17.817800       -9999.0000       0.54291500
       18.106000       -9999.0000       0.55938400
       18.398900       -9999.0000       0.57635400
       18.696400       -9999.0000       0.59314800
       18.998800       -9999.0000       0.60868700
       19.306100       -9999.0000       0.62463400
       19.618400       -9999.0000       0.64099900
       19.935700       -9999.0000       0.65779200
       20.258200       -9999.0000       0.67502500
       20.585800       -9999.0000       0.69271000
       20.918800       -9999.0000       0.72404300
       21.257100       -9999.0000       0.77667000
       21.600900       -9999.0000       0.83312200
       21.950300       -9999.0000       0.89367800
       22.305300       -9999.0000       0.97949200
       22.666100       -9999.0000        1.1039100
       23.032700       -9999.0000        1.2441200
       23.405300       -9999.0000        1.4070500
       23.783800       -9999.0000        1.5949700
       24.168500       -9999.0000        1.8146900
       24.559400       -9999.0000        2.0801000
       24.956600       -9999.0000        2.3909100
       25.360300       -9999.0000        2.7577000
       25.770500       -9999.0000        3.1942300
       26.187300       -9999.0000        3.6909800
       26.610900       -9999.0000        4.1072300
       27.041300       -9999.0000        4.5704300
       27.478600       -9999.0000        5.2424100
       27.923100       -9999.0000        6.0169400
       28.374700       -9999.0000        6.6016100
       28.833700       -9999.0000        7.2050700
       29.300000       0.65158200        7.8658500
       29.773900       0.94804100        8.6219500
       30.255500        1.5589300        9.2848800
       30.744900        2.0851000        9.6636800
       31.242100        2.5678900        10.057900
       31.747500        3.1307300        10.417500
       32.260900        3.6807900        10.673800
       32.782700        4.2839700        10.936400
       33.313000        4.9250400        10.958700
       33.851800        5.4217300        10.932600
       34.399300        5.8482900        10.906500
       34.955700        6.2418600        10.877600
       35.521100        6.6067000        10.844300
       36.095600        6.9525500        10.811100
       36.679400        7.2909200        10.778000
       37.272700        7.6448200        10.717700
       37.875500        7.9524200        10.615300
       38.488200        8.2269200        10.513900
       39.110700        8.4800300        10.412300
       39.743200        8.7106200        10.304600
       40.386100        8.9190400        10.198100
       41.039300        9.1049700        10.092600
       41.703100        9.2630300        10.001600
       42.377600        9.4221600        9.9237900
       43.063000        9.5753600        9.8466200
       43.759500        9.7164100        9.7700700
       44.467300        9.8388100        9.7046600
       45.186500        9.9648800        9.6500800
       45.917400        10.087700        9.5958000
       46.660000        10.198000        9.5418300
       47.414700        10.294300        9.5150300
       48.181600        10.410300        9.5009000
       48.960900        10.539500        9.4868100
       49.752800        10.685300        9.4706700
       50.557600        10.828100        9.4185200
       51.375300        10.956000        9.3666500
       52.206200        11.074800        9.3150500
       53.050600        11.187900        9.2637500
       53.908700        11.296000        9.2127300
       54.780600        11.399700        9.1619900
       55.666700        11.499200        9.1115400
       56.567000        11.595300        9.0613600
       57.482000        11.688800        9.0114600
       58.411700        11.783000        8.9572100
       59.356400        11.866900        8.8974800
       60.316500        11.943100        8.8381400
       61.292100        12.012500        8.7792000
       62.283400        12.075300        8.7206600
       63.290800        12.131100        8.6625100
       64.314500        12.179400        8.6047300
       65.354700        12.219000        8.5473600
       66.411800        12.246600        8.4903600
       67.485900        12.251400        8.4338800
       68.577500        12.248700        8.4201300
       69.686700        12.262600        8.4133700
       70.813800        12.282200        8.4066200
       71.959100        12.303200        8.3998600
       73.123000        12.323700        8.3931200
       74.305700        12.342300        8.3863900
       75.507600        12.356400        8.3796600
       76.728900        12.360800        8.3794500
       77.969900        12.369600        8.3867900
       79.231000        12.379600        8.3941300
       80.512500        12.387100        8.4014800
       81.814700        12.390700        8.4088400
       83.138000        12.386500        8.4162000
       84.482700        12.362600        8.4242500
       85.849100        12.341400        8.4726400
       87.237700        12.334400        8.5213000
       88.648700        12.332900        8.5702500
       90.082500        12.334000        8.6194700
       91.539500        12.335900        8.6689900
       93.020100        12.336300        8.7187800
       94.524600        12.328500        8.7688500
       96.053500        12.326300        8.8482700
       97.607100        12.340200        8.9285000
       99.185800        12.369800        9.0094700
       100.79000        12.423700        9.0911700
       102.42000        12.544600        9.1228700
       104.07700        12.606100        9.0869800
       105.76000        12.626200        9.0512200
       107.47100        12.631000        9.0156000
       109.20900        12.641900        8.9698300
       110.97500        12.614600        8.8817700
       112.77000        12.545500        8.7945800
       114.59400        12.445600        8.7082500
       116.44800        12.317500        8.6227700
       118.33100        12.164300        8.5381200
       120.24500        11.996900        8.4543000
       122.19000        11.874500        8.3116300
       124.16600        11.595200        8.0232800
       126.17500        11.170900        7.7449300
       128.21500        10.614400        7.4762300
       130.28900        9.9288000        7.2168600
       132.39700        9.0844800        6.8960100
       134.53800        7.9767800        6.5513700
       136.71400        6.4689200        5.9445500
       138.92500        4.0616800        5.4533400
       141.17200       0.38811400        5.1089700
       143.45600       -6.2903900        5.1925300
       145.77600       -16.689400        12.883600
       148.13400       -20.614600        33.585700
       150.53000     0.0014439800        46.579000
       152.96400        14.193000        42.567000
       155.43900        21.531800        36.323800
       157.95300        23.613200        29.909400
       160.50700        22.755000        25.958200
       163.10300        22.099300        24.542200
       165.74200        22.184500        23.674100
       168.42200        22.393100        22.836700
       171.14600        22.660400        22.181300
       173.91500        22.956300        21.551500
       176.72700        23.230700        20.939700
       179.58600        23.406600        20.390500
       182.49100        23.618400        19.950700
       185.44200        23.834600        19.520400
       188.44200        24.028800        19.099300
       191.48900        24.172000        18.687300
       194.58700        24.296600        18.367700
       197.73400        24.431200        18.062600
       200.93200        24.555900        17.762500
       204.18200        24.652300        17.495300
       207.48500        24.762600        17.260600
       210.84000        24.873600        17.029000
       214.25100        24.979400        16.799600
       217.71600        25.063200        16.562800
       221.23700        25.111200        16.329400
       224.81600        25.085600        16.099300
       228.45200        25.002100        16.034600
       232.14700        25.011900        16.048500
       235.90200        25.102400        16.062400
       239.71700        25.250400        16.076400
       243.59500        25.436300        16.011000
       247.53500        25.590200        15.913500
       251.53800        25.714700        15.816700
       255.60700        25.824400        15.724500
       259.74100        25.925500        15.637500
       263.94200        26.013400        15.551000
       268.21100        26.069400        15.464900
       272.54900        26.076600        15.434700
       276.95700        26.137700        15.475000
       281.43700        26.235200        15.515400
       285.98900        26.355000        15.555900
       290.61500        26.493800        15.596500
       295.31500        26.661000        15.637300
       300.09200        26.853000        15.644700
       304.94500        27.026100        15.624600
       309.87800        27.188500        15.604600
       314.89000        27.345800        15.584600
       319.98300        27.499400        15.564700
       325.15800        27.648400        15.544700
       330.41800        27.786800        15.524800
       335.76200        27.923900        15.530500
       341.19200        28.073600        15.542100
       346.71100        28.234400        15.553700
       352.31900        28.402800        15.565300
       358.01700        28.581500        15.576900
       363.80800        28.777300        15.578700
       369.69200        28.964900        15.561000
       375.67200        29.147200        15.543400
       381.74800        29.328700        15.525700
       387.92200        29.511300        15.508100
       394.19700        29.697600        15.490600
       400.57300        29.897300        15.468200
       407.05200        30.087800        15.423100
       413.63500        30.269100        15.378200
       420.32600        30.445300        15.333400
       427.12400        30.618000        15.288700
       434.03200        30.788000        15.244200
       441.05200        30.955700        15.199800
       448.18600        31.119300        15.155500
       455.43500        31.282400        15.116800
       462.80200        31.448100        15.079100
       470.28700        31.615500        15.041500
       477.89400        31.785100        15.004000
       485.62300        31.957600        14.966500
       493.47800        32.142800        14.929200
       501.45900        32.327000        14.870100
       509.57000        32.502200        14.809000
       517.81200        32.674400        14.748200
       526.18700        32.852500        14.687600
       534.69800        33.027800        14.612000
       543.34600        33.194700        14.534600
       552.13400        33.358000        14.457600
       561.06500        33.520200        14.381000
       570.13900        33.683900        14.304800
       579.36100        33.853700        14.229100
       588.73200        34.049200        14.153700
       598.25400        34.237700        14.011400
       607.93000        34.396100        13.861100
       617.76300        34.529700        13.712400
       627.75500        34.649000        13.565300
       637.90800        34.756300        13.419800
       648.22600        34.853000        13.275900
       658.71100        34.940100        13.133500
       669.36500        35.018100        12.992600
       680.19100        35.090200        12.852500
       691.19300        35.152000        12.709900
       702.37200        35.203000        12.568900
       713.73300        35.244600        12.429500
       725.27700        35.277400        12.291600
       737.00800        35.301500        12.155200
       748.92800        35.317500        12.020300
       761.04200        35.328300        11.887000
       773.35100        35.329400        11.744700
       785.85900        35.315300        11.601100
       798.57000        35.286200        11.459300
       811.48600        35.243700        11.319100
       824.61100        35.187800        11.180800
       837.94900        35.118700        11.044000
       851.50200        35.035600        10.907000
       865.27400        34.936600        10.769500
       879.26900        34.818400        10.631700
       893.49100        34.680600        10.495700
       907.94300        34.522400        10.361300
       922.62800        34.344200        10.228700
       937.55100        34.140600        10.091200
       952.71500        33.907200        9.9538600
       968.12400        33.639500        9.8168500
       983.78300        33.335200        9.6820300
       999.69500        32.990400        9.5479300
       1015.8600        32.600200        9.4144700
       1032.2900        32.150800        9.2744000
       1048.9900        31.631100        9.1363100
       1065.9600        31.028300        9.0002600
       1083.2000        30.324900        8.8661500
       1100.7200        29.495300        8.7339600
       1118.5200        28.502000        8.6036500
       1136.6100        27.288700        8.4756000
       1155.0000        25.763000        8.3493700
       1173.6800        23.759800        8.2249200
       1192.6600        20.940200        8.1024900
       1211.9500        16.411900        7.9818600
       1231.5500        5.8609100        7.8629900
       1241.0000       -39.615400        7.8070100
       1241.2000       -39.588000        39.586400
       1251.4700        7.8870000        39.118600
       1271.7200        19.528800        38.224000
       1292.2900        25.215800        37.349800
       1313.1900        29.041400        36.495700
       1334.4300        31.920600        35.661000
       1356.0100        34.214000        34.845400
       1377.9400        36.101300        34.048400
       1400.2300        37.685000        33.269600
       1422.8800        39.027800        32.508800
       1445.8900        40.169600        31.765500
       1469.2800        41.134200        31.039000
       1493.0400        41.932500        30.328900
       1517.1900        42.561100        29.635200
       1541.7300        42.993100        28.957500
       1566.6700        43.145300        28.295500
       1592.0100        42.569300        27.648300
       1611.2000        35.924900        27.174600
       1611.4000        35.946500        31.779300
       1617.7600        41.775600        31.608500
       1643.9200        44.698600        30.922000
       1670.5100        46.060300        30.250400
       1697.5300        46.995100        29.593600
       1724.9900        47.633300        28.951400
       1752.8900        47.706700        28.323100
       1767.6000        45.308100        28.001200
       1767.8000        45.327700        30.015100
       1781.2400        48.504100        29.700700
       1810.0500        49.881100        29.045400
       1839.3200        50.785500        28.404700
       1869.0700        51.498100        27.778200
       1899.3000        52.071200        27.166000
       1930.0200        52.489000        26.566700
       1961.2400        52.435200        25.980600
       1967.4000        51.113500        25.867600
       1967.6000        51.116700        26.945600
       1992.9600        53.430700        26.500000
       2025.2000        54.198200        25.952200
       2057.9500        54.806500        25.402300
       2091.2400        55.333400        24.860900
       2125.0600        55.805100        24.328700
       2159.4300        56.234700        23.805500
       2194.3600        56.628900        23.291000
       2229.8500        56.992700        22.785500
       2265.9200        57.329300        22.288900
       2302.5700        57.641700        21.801200
       2339.8100        57.931700        21.322200
       2377.6600        58.201500        20.851900
       2416.1100        58.451800        20.390000
       2455.1900        58.684600        19.937500
       2494.9000        58.901300        19.493300
       2535.2600        59.102800        19.057600
       2576.2600        59.289500        18.630200
       2617.9300        59.462900        18.211600
       2660.2700        59.623700        17.800900
       2703.3000        59.772200        17.398400
       2747.0300        59.909900        17.004700
       2791.4600        60.037000        16.618100
       2836.6100        60.153500        16.239800
       2882.4900        60.260700        15.869400
       2929.1100        60.358900        15.506400
       2976.4800        60.448700        15.151100
       3024.6300        60.529700        14.802700
       3073.5500        60.603300        14.462600
       3123.2600        60.669800        14.128900
       3173.7800        60.728900        13.802100
       3225.1100        60.780800        13.483000
       3277.2700        60.827200        13.171100
       3330.2800        60.867200        12.864700
       3384.1500        60.901100        12.565800
       3438.8800        60.929900        12.273300
       3494.5000        60.953200        11.987000
       3551.0200        60.971300        11.707100
       3608.4600        60.984600        11.433200
       3666.8200        60.993000        11.165400
       3726.1300        60.997000        10.903600
       3786.4000        60.996600        10.647600
       3847.6400        60.991900        10.397300
       3909.8700        60.983100        10.152500
       3973.1100        60.970400        9.9132900
       4037.3800        60.953700        9.6792700
       4102.6800        60.933300        9.4506700
       4169.0300        60.909100        9.2270900
       4236.4600        60.881200        9.0087000
       4304.9800        60.849800        8.7950600
       4374.6200        60.814700        8.5863500
       4445.3700        60.776100        8.3823700
       4517.2700        60.733900        8.1829900
       4590.3300        60.688200        7.9882100
       4664.5800        60.638900        7.7976700
       4740.0300        60.585800        7.6115600
       4816.6900        60.528900        7.4297900
       4894.6000        60.468200        7.2520800
       4973.7700        60.403600        7.0785300
       5054.2100        60.334800        6.9088000
       5135.9600        60.261600        6.7429900
       5219.0300        60.183800        6.5809500
       5303.4400        60.101100        6.4227400
       5389.2200        60.013300        6.2679600
       5476.3900        59.919800        6.1167500
       5564.9700        59.820100        5.9691200
       5654.9800        59.713900        5.8248400
       5746.4400        59.600400        5.6838700
       5839.3900        59.478700        5.5460900
       5933.8300        59.347700        5.4114300
       6029.8100        59.206500        5.2800500
       6127.3300        59.053600        5.1514900
       6226.4400        58.886800        5.0258600
       6327.1500        58.704000        4.9031900
       6429.4800        58.502100        4.7832800
       6533.4800        58.277100        4.6661900
       6639.1500        58.023500        4.5517700
       6746.5400        57.733400        4.4397900
       6855.6500        57.395400        4.3305400
       6966.5400        56.991700        4.2238200
       7079.2200        56.491500        4.1192900
       7193.7200        55.835100        4.0174100
       7310.0700        54.879300        3.9175800
       7428.3100        53.076900        3.8204200
       7513.9000        39.232900        3.7525200
       7514.1000        39.233400        10.201400
       7548.4500        51.237700        10.131800
       7670.5400        54.272300        9.8908900
       7794.6100        55.296200        9.6558700
       7920.6800        55.766700        9.4262700
       8048.7900        55.834900        9.2023200
       8178.9800        55.195400        8.9836500
       8251.5000        48.127900        8.8655600
       8251.7000        48.130300        12.411400
       8311.2600        55.424200        12.241800
       8445.6900        57.001800        11.872000
       8582.2900        57.597900        11.513400
       8707.9000        54.747400        11.198200
       8708.1000        54.748100        12.720800
       8721.1100        57.165400        12.693400
       8862.1600        58.892800        12.403000
       9005.5000        59.669500        12.118000
       9151.1600        60.260200        11.837100
       9299.1700        60.749100        11.560700
       9449.5800        61.168900        11.289000
       9602.4200        61.537000        11.021900
       9757.7300        61.863600        10.759200
       9915.5500        62.156000        10.501900
       10075.900        62.420200        10.248600
       10238.900        62.658900        10.000100
       10404.500        62.876000        9.7562100
       10572.800        63.073800        9.5170000
       10743.800        63.254400        9.2824700
       10917.600        63.419500        9.0525800
       11094.200        63.570700        8.8273200
       11273.600        63.709100        8.6066500
       11455.900        63.836000        8.3905500
       11641.200        63.952100        8.1789800
       11829.500        64.058400        7.9718900
       12020.800        64.155700        7.7692500
       12215.300        64.244700        7.5710000
       12412.800        64.325900        7.3771000
       12613.600        64.399900        7.1874900
       12817.600        64.467200        7.0021300
       13025.000        64.528300        6.8209400
       13235.600        64.583500        6.6438700
       13449.700        64.633400        6.4708800
       13667.200        64.678200        6.3018800
       13888.300        64.718400        6.1368200
       14112.900        64.754000        5.9756400
       14341.200        64.785600        5.8182800
       14573.100        64.813300        5.6646500
       14808.900        64.837400        5.5147200
       15048.400        64.858100        5.3683900
       15291.800        64.875600        5.2256200
       15539.100        64.890200        5.0863400
       15790.400        64.902000        4.9504700
       16045.800        64.911100        4.8179500
       16305.400        64.917900        4.6887200
       16569.100        64.922300        4.5627200
       16837.100        64.924600        4.4398600
       17109.400        64.924900        4.3201100
       17386.100        64.923300        4.2033700
       17667.400        64.920000        4.0896000
       17953.100        64.915000        3.9787300
       18243.500        64.908500        3.8707000
       18538.600        64.900500        3.7654400
       18838.400        64.891200        3.6628900
       19143.100        64.880700        3.5630100
       19452.700        64.868900        3.4657100
       19767.400        64.856100        3.3709500
       20087.100        64.842200        3.2786700
       20412.000        64.827400        3.1888000
       20742.100        64.811700        3.1013000
       21077.600        64.795200        3.0161100
       21418.500        64.777800        2.9331700
       21765.000        64.759800        2.8524300
       22117.000        64.741000        2.7738400
       22474.700        64.721700        2.6973400
       22838.200        64.701700        2.6228900
       23207.600        64.681200        2.5504300
       23583.000        64.660100        2.4799200
       23964.400        64.638500        2.4113100
       24352.000        64.616500        2.3445400
       24745.900        64.594000        2.2795800
       25146.200        64.571200        2.2163800
       25552.900        64.547900        2.1548900
       25966.200        64.524200        2.0950800
       26386.100        64.500200        2.0368900
       26812.900        64.475800        1.9802900
       27246.600        64.451000        1.9252400
       27687.300        64.426000        1.8716900
       28135.100        64.400500        1.8196100
       28590.200        64.374800        1.7689600
       29052.600        64.348600        1.7197000
       29522.500        64.322200        1.6718000
       30000.000        64.295300        1.6252200
       30200.000        64.260800        1.6220500
       30290.000        64.255800        1.6135100
       30371.300        64.251300        1.6058600
       30700.000        64.233000        1.5754800
       31000.000        64.216400        1.5485400
       31400.000        64.194100        1.5137100
       31700.000        64.177400        1.4883900
       32100.000        64.155100        1.4556500
       32400.000        64.138400        1.4318300
       32700.000        64.121700        1.4086100
       33000.000        64.105000        1.3859700
       33400.000        64.082500        1.3565500
       33800.000        64.060100        1.3280900
       34100.000        64.043100        1.3073500
       34500.000        64.020500        1.2804800
       34900.000        63.997700        1.2544600
       35300.000        63.974900        1.2291800
       35700.000        63.951700        1.2046500
       36030.000        63.932500        1.1849900
       36500.000        63.904800        1.1578400
       37000.000        63.875000        1.1300000
       37500.000        63.844800        1.1031900
       38000.000        63.814000        1.0773700
       38500.000        63.782700        1.0524700
       39000.000        63.750700        1.0284600
       39500.000        63.718000        1.0052900
       40000.000        63.684500       0.98292300
       40400.000        63.657100       0.96570500
       40800.000        63.628900       0.94848800
       41100.000        63.607300       0.93622400
       41500.000        63.577800       0.91987100
       41900.000        63.547300       0.90432400
       42300.000        63.516000       0.88877800
       42600.000        63.491700       0.87768400
       43000.000        63.458400       0.86289200
       43400.000        63.423700       0.84880400
       43800.000        63.387700       0.83471700
       44100.000        63.359600       0.82464700
       44500.000        63.320600       0.81122000
       44900.000        63.279700       0.79839600
       45300.000        63.236500       0.78557100
       45600.000        63.202500       0.77637000
       46000.000        63.154600       0.76410300
       46300.000        63.116600       0.75523400
       46500.000        63.090100       0.74932100
       46800.000        63.048600       0.74071600
       47000.000        63.019600       0.73497900
       47300.000        62.973800       0.72662600
       47500.000        62.941500       0.72105800
       47800.000        62.890400       0.71294900
       48000.000        62.854200       0.70754300
       48300.000        62.796200       0.69966800
       48500.000        62.754800       0.69441800
       48650.000        62.722100       0.69059300
       48800.000        62.687900       0.68676700
       48900.000        62.664100       0.68421700
       49000.000        62.639600       0.68166700
       49150.000        62.601100       0.67795000
       49300.000        62.560600       0.67423200
       49400.000        62.532200       0.67175400
       49500.000        62.502700       0.66927600
       49650.000        62.456000       0.66566300
       49800.000        62.406200       0.66204900
       49900.000        62.371100       0.65964000
       50000.000        62.334100       0.65723100
       50070.000        62.307200       0.65558000
       50150.000        62.275000       0.65369400
       50220.000        62.245800       0.65204300
       50300.000        62.210800       0.65015600
       50400.000        62.164700       0.64779800
       50500.000        62.115600       0.64544000
       50570.000        62.079300       0.64383500
       50650.000        62.035400       0.64200000
       50720.000        61.994900       0.64039500
       50800.000        61.945700       0.63856000
       50850.000        61.913300       0.63741400
       50900.000        61.879500       0.63626700
       50950.000        61.844100       0.63512100
       51000.000        61.807100       0.63397400
       51070.000        61.752000       0.63241300
       51150.000        61.683800       0.63062800
       51180.000        61.656700       0.62995900
       51220.000        61.618900       0.62906700
       51260.000        61.579300       0.62817400
       51300.000        61.537500       0.62728200
       51350.000        61.482000       0.62616700
       51400.000        61.422400       0.62505200
       51450.000        61.357900       0.62393600
       51470.000        61.330600       0.62349000
       51500.000        61.287800       0.62282100
       51530.000        61.242600       0.62217100
       51570.000        61.178100       0.62130400
       51610.000        61.108000       0.62043800
       51650.000        61.031200       0.61957100
       51680.000        60.968600       0.61892100
       51700.000        60.924000       0.61848800
       51720.000        60.876800       0.61805500
       51740.000        60.826800       0.61762100
       51760.000        60.773500       0.61718800
       51780.000        60.716500       0.61675500
       51800.000        60.655400       0.61632100
       51815.000        60.606400       0.61599600
       51830.000        60.554300       0.61567100
       51845.000        60.498800       0.61534600
       51860.000        60.439300       0.61502100
       51870.000        60.397100       0.61480500
       51880.000        60.352800       0.61458800
       51890.000        60.305900       0.61437100
       51900.000        60.256200       0.61415500
       51915.000        60.175900       0.61383000
       51923.000        60.129700       0.61365600
       51930.000        60.087100       0.61350500
       51940.000        60.022300       0.61328800
       51950.000        59.952100       0.61307200
       51960.000        59.875500       0.61285500
       51970.000        59.791400       0.61263800
       51977.000        59.727100       0.61248700
       51985.000        59.647100       0.61231300
       51993.000        59.558900       0.61214000
       52000.000        59.473600       0.61198800
       52004.000        59.420600       0.61190200
       52008.000        59.364200       0.61181500
       52012.000        59.303900       0.61172800
       52015.000        59.255600       0.61166300
       52019.000        59.186800       0.61157700
       52023.000        59.111900       0.61149000
       52027.000        59.029900       0.61140300
       52030.000        58.962900       0.61133800
       52033.000        58.890100       0.61127300
       52035.000        58.837800       0.61123000
       52038.000        58.753200       0.61116500
       52040.000        58.691700       0.61112200
       52043.000        58.590300       0.61105700
       52045.000        58.515400       0.61101300
       52048.000        58.389200       0.61094800
       52050.000        58.293700       0.61090500
       52051.500        58.214300       0.61087200
       52053.000        58.126700       0.61084000
       52054.000        58.063200       0.61081800
       52055.000        57.994000       0.61079700
       52056.000        57.919400       0.61077500
       52057.000        57.837300       0.61075300
       52058.000        57.747100       0.61073200
       52059.000        57.645700       0.61071000
       52060.000        57.531600       0.61068800
       52061.000        57.399300       0.61066700
       52062.000        57.243800       0.61064500
       52063.000        57.054300       0.61062300
       52064.000        56.814200       0.61060200
       52065.000        56.486000       0.61058000
       52065.600        56.216500       0.61056700
       52066.200        55.844600       0.61055400
       52066.800        55.274400       0.61054100
       52067.400        54.193500       0.61052800
       52067.400        54.187700       0.61052800
       52067.500        54.314900        1.3265400
       52067.600        54.524400        2.0425600
       52067.700        54.717400        2.7585700
       52067.900        55.114400        4.1906000
       52068.500        56.247600        8.4866800
       52068.900        56.894500        4.9861500
       52069.400        57.519000       0.61048600
       52069.400        57.497700       0.61048500
       52069.500        57.848800       0.61048400
       52070.400        57.331500        4.9459000
       52071.500        57.403000        1.2036500
       52072.100        56.636800        1.9624500
       52072.700        56.549500        3.1395900
       52073.400        56.819000        3.3876200
       52074.000        57.275900        3.3823800
       52074.500        57.399000        3.3780800
       52075.000        57.497700        3.3737500
       52076.000        57.654000        3.3650300
       52076.800        57.751700        3.3580100
       52077.500        57.827200        3.3518700
       52078.300        57.902900        3.3448400
       52079.000        57.962100        3.3386900
       52079.500        58.000600        3.3358800
       52080.000        58.037300        3.3330800
       52081.000        58.106200        3.3274200
       52081.800        58.156100        3.3238600
       52082.500        58.196300        3.3207500
       52083.300        58.238800        3.3171900
       52084.000        58.274300        3.3140800
       52085.000        58.321800        3.3119800
       52086.000        58.366100        3.3098800
       52087.000        58.407300        3.3104500
       52088.000        58.447500        3.3110100
       52089.000        58.485500        3.3115700
       52090.000        58.521500        3.3121400
       52091.500        58.572700        3.3155800
       52093.000        58.621800        3.3190200
       52095.000        58.683800        3.3249600
       52098.000        58.771600        3.3338900
       52100.000        58.827100        3.3398500
       52103.000        58.906300        3.3467400
       52105.000        58.957200        3.3513300
       52108.000        59.029300        3.3549500
       52110.000        59.075100        3.3573600
       52112.000        59.119000        3.3579600
       52114.000        59.161000        3.3585500
       52118.000        59.239200        3.3567900
       52122.000        59.310200        3.3532500
       52125.000        59.359100        3.3505900
       52129.000        59.419100        3.3470300
       52133.000        59.474200        3.3434600
       52137.000        59.525300        3.3409600
       52140.000        59.560800        3.3390800
       52144.000        59.606400        3.3383500
       52148.000        59.649300        3.3376100
       52155.000        59.720800        3.3382200
       52163.000        59.798000        3.3385600
       52170.000        59.860400        3.3388500
       52177.000        59.918800        3.3384400
       52185.000        59.981200        3.3379800
       52193.000        60.039800        3.3375100
       52200.000        60.088100        3.3371000
       52208.000        60.140100        3.3363600
       52215.000        60.183200        3.3357100
       52223.000        60.230100        3.3349700
       52230.000        60.269100        3.3343300
       52240.000        60.322100        3.3334000
       52250.000        60.372000        3.3324800
       52260.000        60.419400        3.3315500
       52270.000        60.464400        3.3306200
       52285.000        60.528000        3.3292400
       52300.000        60.587300        3.3278500
       52310.000        60.624900        3.3271100
       52320.000        60.660900        3.3263700
       52335.000        60.712600        3.3252700
       52350.000        60.761500        3.3241600
       52365.000        60.808000        3.3230500
       52380.000        60.852400        3.3219500
       52400.000        60.908800        3.3204700
       52420.000        60.962000        3.3185200
       52450.000        61.035800        3.3155900
       52470.000        61.081700        3.3136400
       52500.000        61.146000        3.3107200
       52520.000        61.186300        3.3087600
       52550.000        61.244100        3.3058400
       52580.000        61.298700        3.3029100
       52600.000        61.333400        3.3009600
       52630.000        61.383400        3.2985500
       52650.000        61.415300        3.2969400
       52700.000        61.490800        3.2929200
       52750.000        61.561000        3.2889100
       52800.000        61.626900        3.2848900
       52830.000        61.664500        3.2817800
       52870.000        61.712200        3.2776200
       52910.000        61.757600        3.2734700
       52950.000        61.800600        3.2693200
       52980.000        61.831300        3.2662100
       53020.000        61.870200        3.2620500
       53060.000        61.907900        3.2579000
       53100.000        61.944300        3.2537500
       53150.000        61.988000        3.2492500
       53200.000        62.029900        3.2447400
       53250.000        62.070000        3.2402400
       53300.000        62.108500        3.2357400
       53350.000        62.145600        3.2312400
       53400.000        62.181200        3.2267400
       53450.000        62.215600        3.2222300
       53500.000        62.248600        3.2177300
       53600.000        62.311700        3.2098300
       53700.000        62.371600        3.2019300
       53800.000        62.429100        3.1933300
       53900.000        62.483800        3.1847300
       54000.000        62.535500        3.1750000
       54100.000        62.584500        3.1652700
       54200.000        62.630700        3.1551800
       54300.000        62.674800        3.1450900
       54370.000        62.704400        3.1378900
       54450.000        62.736800        3.1296700
       54520.000        62.764000        3.1224700
       54600.000        62.794100        3.1142500
       54700.000        62.830400        3.1045200
       54800.000        62.865300        3.0947900
       54900.000        62.898800        3.0850600
       55000.000        62.930700        3.0753300
       55070.000        62.952200        3.0691500
       55150.000        62.976500        3.0620800
       55300.000        63.020400        3.0488300
       55450.000        63.062100        3.0361600
       55600.000        63.101500        3.0234900
       55800.000        63.152600        3.0076700
       56000.000        63.201700        2.9918400
       56150.000        63.237200        2.9799800
       56300.000        63.271100        2.9681100
       56450.000        63.303900        2.9561100
       56600.000        63.335600        2.9441200
       56750.000        63.366300        2.9321200
       56900.000        63.396200        2.9201300
       57050.000        63.425500        2.9081300
       57200.000        63.453600        2.8961400
       57400.000        63.489500        2.8801500
       57530.000        63.512000        2.8697500
       57660.000        63.534000        2.8593100
       57800.000        63.557000        2.8480700
       58000.000        63.589100        2.8320000
       58300.000        63.634800        2.8079100
       58500.000        63.663400        2.7918500
       58800.000        63.704700        2.7684100
       59000.000        63.730800        2.7527800
       59300.000        63.768200        2.7293300
       59540.000        63.796700        2.7105800
       59670.000        63.811700        2.7007300
       59800.000        63.826300        2.6908800
       59900.000        63.837300        2.6833800
       59950.000        63.842700        2.6796300
       60000.000        63.848000        2.6758800
       60200.000        63.869100        2.6615400
       60400.000        63.889600        2.6472000
       60600.000        63.909600        2.6328600
       60800.000        63.929000        2.6185200
       60950.000        63.943200        2.6081100
       61100.000        63.957100        2.5977000
       61300.000        63.975200        2.5838300
       61500.000        63.992800        2.5699500
       61700.000        64.009900        2.5565100
       61900.000        64.026600        2.5430600
       62100.000        64.042800        2.5296200
       62300.000        64.058600        2.5161800
       62600.000        64.081500        2.4966500
       62800.000        64.096300        2.4836300
       63000.000        64.110700        2.4706100
       63300.000        64.131700        2.4517600
       63500.000        64.145200        2.4391900
       63800.000        64.165000        2.4203500
       64000.000        64.177700        2.4077800
       64300.000        64.196300        2.3896900
       64500.000        64.208300        2.3776300
       64800.000        64.225800        2.3595400
       65000.000        64.237000        2.3474800
       65300.000        64.253500        2.3301500
       65500.000        64.264200        2.3186000
       65700.000        64.274700        2.3070500
       65900.000        64.285000        2.2955000
       66200.000        64.299900        2.2787900
       66400.000        64.309700        2.2676500
       66600.000        64.319200        2.2565100
       66830.000        64.329900        2.2437000
       66960.000        64.335800        2.2366700
       67100.000        64.342100        2.2291000
       67400.000        64.355400        2.2128800
       67700.000        64.368200        2.1970300
       68000.000        64.380700        2.1811700
       68300.000        64.392800        2.1657600
       68500.000        64.400700        2.1554800
       68800.000        64.412200        2.1400700
       69000.000        64.419700        2.1298000
       69300.000        64.430700        2.1149700
       69500.000        64.437900        2.1050800
       69800.000        64.448400        2.0902400
       70000.000        64.455300        2.0803500
       70300.000        64.465500        2.0658200
       70500.000        64.472000        2.0561400
       70800.000        64.481600        2.0416100
       71000.000        64.487800        2.0319200
       71300.000        64.496800        2.0179200
       71500.000        64.502700        2.0086000
       71800.000        64.511400        1.9946000
       72000.000        64.517000        1.9852700
       72400.000        64.528000        1.9673800
       72800.000        64.538600        1.9494900
       73200.000        64.548900        1.9316100
       73500.000        64.556300        1.9181900
       73900.000        64.565900        1.9011100
       74200.000        64.572800        1.8882900
       74600.000        64.581700        1.8712100
       74960.000        64.589600        1.8558300
       75200.000        64.594700        1.8458400
       75500.000        64.600800        1.8333600
       76000.000        64.610600        1.8129300
       76600.000        64.621800        1.7891000
       77110.000        64.630800        1.7688400
       77900.000        64.644100        1.7387000
       78600.000        64.655000        1.7119900
       79300.000        64.665200        1.6860900
       79700.000        64.670600        1.6716300
       80000.000        64.674500        1.6607900
       80800.000        64.684500        1.6330200
       81500.000        64.692600        1.6087200
       82300.000        64.701200        1.5823000
       83000.000        64.708100        1.5591800
       83500.000        64.712800        1.5433300
       84000.000        64.717300        1.5274800
       85000.000        64.725600        1.4967900
       85800.000        64.731600        1.4734100
       86500.000        64.736600        1.4529500
       87300.000        64.741900        1.4306400
       88000.000        64.746300        1.4111100
       89000.000        64.752200        1.3842700
       90000.000        64.757600        1.3582300
       91500.000        64.764800        1.3201600
       93000.000        64.770800        1.2837500
       94000.000        64.774400        1.2603500
       95000.000        64.777600        1.2376200
       96500.000        64.781700        1.2042600
       98000.000        64.785000        1.1723000
       99000.000        64.786700        1.1517300
       99500.000        64.787400        1.1416500
       100000.00        64.788200        1.1317200
