;  Atomic scattering factors for Tm.
;   
;  Concatenation of data from CXRO <http://www-cxro.lbl.gov>
;  and LLNL <http://www-phys.llnl.gov/V_Div/scattering/asf.html>
;  
;  E (eV) f1 f2
;---------------
       10.000000       -9999.0000       0.17917800
       10.161700       -9999.0000       0.18356200
       10.326100       -9999.0000       0.18805300
       10.493100       -9999.0000       0.19265500
       10.662800       -9999.0000       0.19736900
       10.835300       -9999.0000       0.20219800
       11.010600       -9999.0000       0.20714500
       11.188600       -9999.0000       0.21221400
       11.369600       -9999.0000       0.21740600
       11.553500       -9999.0000       0.22272600
       11.740400       -9999.0000       0.22803200
       11.930300       -9999.0000       0.23336200
       12.123200       -9999.0000       0.23881600
       12.319300       -9999.0000       0.24439800
       12.518600       -9999.0000       0.25246500
       12.721000       -9999.0000       0.26093800
       12.926800       -9999.0000       0.26969500
       13.135900       -9999.0000       0.27895600
       13.348300       -9999.0000       0.28875000
       13.564200       -9999.0000       0.29888800
       13.783600       -9999.0000       0.30938100
       14.006600       -9999.0000       0.32024300
       14.233100       -9999.0000       0.33078500
       14.463300       -9999.0000       0.34162800
       14.697300       -9999.0000       0.35282700
       14.935000       -9999.0000       0.36336700
       15.176500       -9999.0000       0.37192000
       15.422000       -9999.0000       0.38067400
       15.671400       -9999.0000       0.38963500
       15.924900       -9999.0000       0.40138800
       16.182500       -9999.0000       0.41449400
       16.444200       -9999.0000       0.42802800
       16.710200       -9999.0000       0.44200400
       16.980500       -9999.0000       0.45490600
       17.255100       -9999.0000       0.46752200
       17.534200       -9999.0000       0.48048800
       17.817800       -9999.0000       0.49314600
       18.106000       -9999.0000       0.50431300
       18.398900       -9999.0000       0.51573400
       18.696400       -9999.0000       0.52815700
       18.998800       -9999.0000       0.54355700
       19.306100       -9999.0000       0.55940700
       19.618400       -9999.0000       0.57621900
       19.935700       -9999.0000       0.59638000
       20.258200       -9999.0000       0.61724800
       20.585800       -9999.0000       0.63430700
       20.918800       -9999.0000       0.64972900
       21.257100       -9999.0000       0.66552500
       21.600900       -9999.0000       0.68158200
       21.950300       -9999.0000       0.69786200
       22.305300       -9999.0000       0.71453200
       22.666100       -9999.0000       0.73198500
       23.032700       -9999.0000       0.77336100
       23.405300       -9999.0000       0.81707600
       23.783800       -9999.0000       0.87789000
       24.168500       -9999.0000       0.97314600
       24.559400       -9999.0000        1.0796400
       24.956600       -9999.0000        1.2140800
       25.360300       -9999.0000        1.3674900
       25.770500       -9999.0000        1.7160600
       26.187300       -9999.0000        2.5251200
       26.610900       -9999.0000        2.8951400
       27.041300       -9999.0000        3.6339100
       27.478600       -9999.0000        4.2506100
       27.923100       -9999.0000        4.8094600
       28.374700       -9999.0000        5.4778500
       28.833700       -9999.0000        6.1975500
       29.300000       -1.8327200        6.8710000
       29.773900       -1.5937500        7.5857000
       30.255500       -1.1827800        8.3489200
       30.744900      -0.63269900        8.7794600
       31.242100      -0.17601000        9.1680300
       31.747500       0.26410000        9.4910900
       32.260900       0.70109600        9.8223700
       32.782700        1.2222800        10.075900
       33.313000        1.6553700        10.238600
       33.851800        2.0579700        10.403900
       34.399300        2.4521900        10.553400
       34.955700        2.8407900        10.700900
       35.521100        3.2534200        10.850500
       36.095600        3.6878800        10.911300
       36.679400        4.0643000        10.943300
       37.272700        4.4121400        10.980500
       37.875500        4.7620100        11.032000
       38.488200        5.1435200        11.083600
       39.110700        5.6121100        11.059100
       39.743200        5.9782700        10.928600
       40.386100        6.2805000        10.798300
       41.039300        6.5468900        10.666900
       41.703100        6.7887500        10.536600
       42.377600        6.9894800        10.380400
       43.063000        7.1230300        10.226500
       43.759500        7.2324400        10.167800
       44.467300        7.3672500        10.117800
       45.186500        7.5036800        10.068000
       45.917400        7.6288500        10.018500
       46.660000        7.7538500        10.004200
       47.414700        7.8993500        9.9943000
       48.181600        8.0666300        9.9844300
       48.960900        8.2821500        9.9343900
       49.752800        8.4430100        9.8356100
       50.557600        8.5671300        9.7378000
       51.375300        8.6577300        9.6496800
       52.206200        8.7473900        9.5967200
       53.050600        8.8413600        9.5440500
       53.908700        8.9347700        9.4916600
       54.780600        9.0255200        9.4364100
       55.666700        9.1076300        9.3791300
       56.567000        9.1813300        9.3222000
       57.482000        9.2450700        9.2656100
       58.411700        9.2989600        9.2149900
       59.356400        9.3460800        9.1664700
       60.316500        9.3788000        9.1182000
       61.292100        9.3955400        9.0921100
       62.283400        9.4186300        9.0755900
       63.290800        9.4380400        9.0591100
       64.314500        9.4361800        9.0459300
       65.354700        9.4390000        9.0819600
       66.411800        9.4592600        9.1181400
       67.485900        9.4884300        9.1544700
       68.577500        9.5206300        9.1913500
       69.686700        9.5553400        9.2297400
       70.813800        9.5909900        9.2683000
       71.959100        9.6253200        9.3070100
       73.123000        9.6528300        9.3458900
       74.305700        9.6781100        9.4052900
       75.507600        9.7142200        9.4689500
       76.728900        9.7572800        9.5330400
       77.969900        9.8055200        9.5975600
       79.231000        9.8585200        9.6556700
       80.512500        9.9064500        9.7102600
       81.814700        9.9497300        9.7651600
       83.138000        9.9865500        9.8203800
       84.482700        10.004800        9.8842400
       85.849100        10.033800        9.9733300
       87.237700        10.073100        10.063200
       88.648700        10.114600        10.153900
       90.082500        10.149700        10.245400
       91.539500        10.182200        10.368400
       93.020100        10.248200        10.508000
       94.524600        10.356600        10.637300
       96.053500        10.456600        10.717000
       97.607100        10.543100        10.797300
       99.185800        10.622600        10.878200
       100.79000        10.698400        10.959800
       102.42000        10.770800        11.041900
       104.07700        10.839500        11.124700
       105.76000        10.902900        11.208000
       107.47100        10.957700        11.292000
       109.20900        10.993900        11.376700
       110.97500        10.965300        11.504200
       112.77000        11.017700        11.751100
       114.59400        11.181500        12.003300
       116.44800        11.409600        12.104500
       118.33100        11.575700        12.162400
       120.24500        11.697200        12.226900
       122.19000        11.811400        12.298200
       124.16600        11.919200        12.369900
       126.17500        12.015200        12.442000
       128.21500        12.100600        12.541900
       130.28900        12.214100        12.658000
       132.39700        12.383300        12.775100
       134.53800        12.558500        12.785700
       136.71400        12.668500        12.771300
       138.92500        12.721800        12.756800
       141.17200        12.627400        12.909900
       143.45600        12.854300        13.074300
       145.77600        13.043100        13.059300
       148.13400        13.228200        13.044200
       150.53000        13.364900        12.855000
       152.96400        13.407000        12.655600
       155.43900        13.496900        12.459300
       157.95300        13.446300        11.831500
       160.50700        12.893700        11.092900
       163.10300        11.968600        10.472900
       165.74200        10.391200        9.5670400
       168.42200        7.2585500        8.8325200
       171.14600       -2.3942600        12.507600
       173.91500       0.12535100        31.966900
       176.72700        11.104600        29.063800
       179.58600        16.743600        25.575700
       182.49100        18.199300        22.630100
       185.44200        18.680000        20.577400
       188.44200        18.274900        19.315500
       191.48900        18.014100        18.817000
       194.58700        18.055600        18.573900
       197.73400        18.141900        18.333700
       200.93200        18.144900        18.096400
       204.18200        18.154900        18.068700
       207.48500        18.195900        18.090200
       210.84000        18.308800        18.167000
       214.25100        18.472200        18.244500
       217.71600        18.657500        18.323600
       221.23700        18.860600        18.404600
       224.81600        19.078000        18.486500
       228.45200        19.308200        18.568700
       232.14700        19.553200        18.651000
       235.90200        19.809900        18.724600
       239.71700        20.079900        18.787400
       243.59500        20.343800        18.836600
       247.53500        20.606500        18.886000
       251.53800        20.872600        18.935600
       255.60700        21.147500        18.985500
       259.74100        21.435700        19.026600
       263.94200        21.740200        19.042600
       268.21100        22.019900        19.030300
       272.54900        22.284400        19.018500
       276.95700        22.541300        19.006600
       281.43700        22.795000        18.994700
       285.98900        23.043200        18.973500
       290.61500        23.284100        18.949200
       295.31500        23.514500        18.921600
       300.09200        23.735700        18.893200
       304.94500        23.947600        18.865000
       309.87800        24.151200        18.837500
       314.89000        24.345400        18.809900
       319.98300        24.528300        18.782200
       325.15800        24.696500        18.754500
       330.41800        24.842200        18.726300
       335.76200        24.910400        18.739700
       341.19200        25.024900        18.838700
       346.71100        25.189400        18.939300
       352.31900        25.372300        19.040500
       358.01700        25.569800        19.141900
       363.80800        25.779800        19.243300
       369.69200        26.002100        19.344700
       375.67200        26.235200        19.445300
       381.74800        26.479500        19.544500
       387.92200        26.737800        19.640000
       394.19700        26.999800        19.727300
       400.57300        27.267700        19.815200
       407.05200        27.544200        19.903600
       413.63500        27.834000        19.993400
       420.32600        28.139300        20.077700
       427.12400        28.473600        20.153200
       434.03200        28.799700        20.189800
       441.05200        29.119400        20.226600
       448.18600        29.441300        20.263700
       455.43500        29.775700        20.301400
       462.80200        30.123400        20.317200
       470.28700        30.471600        20.318800
       477.89400        30.810700        20.308500
       485.62300        31.149200        20.298300
       493.47800        31.498400        20.286000
       501.45900        31.856700        20.265200
       509.57000        32.224800        20.227400
       517.81200        32.608400        20.174000
       526.18700        32.999500        20.093300
       534.69800        33.385300        19.961900
       543.34600        33.731900        19.806100
       552.13400        34.057900        19.651700
       561.06500        34.370600        19.486000
       570.13900        34.666300        19.315300
       579.36100        34.944200        19.141600
       588.73200        35.209000        18.968800
       598.25400        35.462800        18.797000
       607.93000        35.708100        18.626800
       617.76300        35.947700        18.458200
       627.75500        36.188200        18.289800
       637.90800        36.428100        18.108300
       648.22600        36.658500        17.906900
       658.71100        36.859400        17.693700
       669.36500        37.031000        17.482900
       680.19100        37.178600        17.303100
       691.19300        37.334500        17.146800
       702.37200        37.518800        16.994800
       713.73300        37.710900        16.811800
       725.27700        37.878200        16.608500
       737.00800        38.027300        16.407300
       748.92800        38.164500        16.208500
       761.04200        38.293400        16.011800
       773.35100        38.417200        15.814300
       785.85900        38.533600        15.608700
       798.57000        38.631900        15.397300
       811.48600        38.715100        15.188700
       824.61100        38.785700        14.982700
       837.94900        38.845200        14.779500
       851.50200        38.893800        14.577500
       865.27400        38.931000        14.377000
       879.26900        38.956000        14.178100
       893.49100        38.969000        13.981700
       907.94300        38.970700        13.787800
       922.62800        38.962100        13.596600
       937.55100        38.941000        13.403600
       952.71500        38.906100        13.212300
       968.12400        38.857100        13.022800
       983.78300        38.794500        12.835400
       999.69500        38.719300        12.648400
       1015.8600        38.634000        12.461900
       1032.2900        38.525800        12.258400
       1048.9900        38.390500        12.056000
       1065.9600        38.226500        11.854700
       1083.2000        38.034400        11.656600
       1100.7200        37.813000        11.461500
       1118.5200        37.560200        11.269400
       1136.6100        37.272300        11.080000
       1155.0000        36.945800        10.893700
       1173.6800        36.576100        10.710600
       1192.6600        36.156800        10.529900
       1211.9500        35.680000        10.352200
       1231.5500        35.136100        10.177300
       1251.4700        34.511700        10.004900
       1271.7200        33.789500        9.8353000
       1292.2900        32.945600        9.6683600
       1313.1900        31.946000        9.5040000
       1334.4300        30.740200        9.3423100
       1356.0100        29.249000        9.1832000
       1377.9400        27.336900        9.0262800
       1400.2300        24.744800        8.8719500
       1422.8800        20.875500        8.7202400
       1445.8900        13.723800        8.5709600
       1467.6000       -44.215300        8.4346000
       1467.8000       -44.193100        42.825700
       1469.2800       -13.882000        42.760900
       1493.0400        17.488500        41.739600
       1517.1900        25.420600        40.742700
       1541.7300        30.263500        39.769700
       1566.6700        33.757600        38.819900
       1592.0100        36.474600        37.892300
       1617.7600        38.675800        36.986400
       1643.9200        40.502000        36.101700
       1670.5100        42.036700        35.237600
       1697.5300        43.331100        34.394100
       1724.9900        44.416800        33.570700
       1752.8900        45.307600        32.766700
       1781.2400        45.998700        31.982100
       1810.0500        46.453300        31.216400
       1839.3200        46.545100        30.469100
       1869.0700        45.640400        29.739500
       1884.4000        37.861300        29.374900
       1884.6000        37.868300        34.490800
       1899.3000        46.407600        34.078500
       1930.0200        48.911000        33.242600
       1961.2400        50.312600        32.427400
       1992.9600        51.307200        31.632400
       2025.2000        52.023600        30.864600
       2057.9500        52.401200        30.108900
       2089.7000        49.235700        29.405100
       2089.9000        49.240300        31.521600
       2091.2400        51.069000        31.491200
       2125.0600        53.887800        30.738400
       2159.4300        54.907300        30.004100
       2194.3600        55.649600        29.287800
       2229.8500        56.264200        28.590000
       2265.9200        56.264300        27.908900
       2302.5700        56.623800        28.347300
       2306.7000        56.738000        28.396700
       2306.9000        56.754200        28.420700
       2339.8100        57.803100        27.870600
       2377.6600        58.509900        27.260400
       2416.1100        59.097900        26.661900
       2455.1900        59.615800        26.075000
       2494.9000        60.081400        25.498400
       2535.2600        60.505100        24.933900
       2576.2600        60.894100        24.380600
       2617.9300        61.252000        23.837800
       2660.2700        61.583000        23.306500
       2703.3000        61.888800        22.784600
       2747.0300        62.171600        22.274500
       2791.4600        62.434100        21.774800
       2836.6100        62.677900        21.285400
       2882.4900        62.904000        20.806000
       2929.1100        63.114000        20.336400
       2976.4800        63.308400        19.876300
       3024.6300        63.488000        19.426100
       3073.5500        63.654600        18.986000
       3123.2600        63.809500        18.554900
       3173.7800        63.952300        18.132000
       3225.1100        64.083200        17.718600
       3277.2700        64.204100        17.314300
       3330.2800        64.315300        16.918100
       3384.1500        64.417200        16.530600
       3438.8800        64.509600        16.150700
       3494.5000        64.593700        15.779900
       3551.0200        64.670600        15.416700
       3608.4600        64.739200        15.060500
       3666.8200        64.800800        14.713100
       3726.1300        64.855800        14.372300
       3786.4000        64.903700        14.039000
       3847.6400        64.945400        13.713000
       3909.8700        64.981200        13.394000
       3973.1100        65.011300        13.081900
       4037.3800        65.035800        12.776600
       4102.6800        65.055000        12.477900
       4169.0300        65.069100        12.185600
       4236.4600        65.078300        11.899900
       4304.9800        65.082800        11.620200
       4374.6200        65.082700        11.346900
       4445.3700        65.078300        11.079300
       4517.2700        65.069500        10.817600
       4590.3300        65.056500        10.561900
       4664.5800        65.039500        10.311800
       4740.0300        65.018500        10.067100
       4816.6900        64.993500        9.8278400
       4894.6000        64.964800        9.5939300
       4973.7700        64.932400        9.3651400
       5054.2100        64.896100        9.1414400
       5135.9600        64.856000        8.9227000
       5219.0300        64.812100        8.7087500
       5303.4400        64.764500        8.4997900
       5389.2200        64.713100        8.2952600
       5476.3900        64.657800        8.0954400
       5564.9700        64.598600        7.9000500
       5654.9800        64.535200        7.7089900
       5746.4400        64.467700        7.5223200
       5839.3900        64.395800        7.3397200
       5933.8300        64.319300        7.1612600
       6029.8100        64.238000        6.9867500
       6127.3300        64.151400        6.8160800
       6226.4400        64.059400        6.6493600
       6327.1500        63.961500        6.4862600
       6429.4800        63.857100        6.3269200
       6533.4800        63.745700        6.1709000
       6639.1500        63.626400        6.0186100
       6746.5400        63.498600        5.8696500
       6855.6500        63.361000        5.7240100
       6966.5400        63.212400        5.5816300
       7079.2200        63.051200        5.4424900
       7193.7200        62.875400        5.3064900
       7310.0700        62.682400        5.1734200
       7428.3100        62.468700        5.0433600
       7548.4500        62.230000        4.9161700
       7670.5400        61.960000        4.7918300
       7794.6100        61.649800        4.6702200
       7920.6800        61.286200        4.5513200
       8048.7900        60.848000        4.4350500
       8178.9800        60.297300        4.3214100
       8311.2600        59.558200        4.2104300
       8445.6900        58.431300        4.1019500
       8582.2900        55.964700        3.9956000
       8647.9000        41.578700        3.9461000
       8648.1000        41.580000        10.958300
       8721.1100        56.318000        10.787800
       8862.1600        58.675600        10.469800
       9005.5000        59.675100        10.161100
       9151.1600        60.187600        9.8613500
       9299.1700        60.359800        9.5705500
       9449.5800        60.103400        9.2884600
       9602.4200        57.705900        9.0146000
       9616.8000        52.059200        8.9894800
       9617.0000        52.060000        12.575100
       9757.7300        60.604600        12.232600
       9915.5500        61.543400        11.865200
       10075.900        61.569400        11.511300
       10115.600        58.995500        11.426300
       10115.800        58.996100        12.852100
       10238.900        62.638900        12.634900
       10404.500        63.502900        12.352400
       10572.800        64.124000        12.073800
       10743.800        64.629600        11.799200
       10917.600        65.060500        11.528500
       11094.200        65.436700        11.262100
       11273.600        65.769900        10.999800
       11455.900        66.068100        10.741800
       11641.200        66.336800        10.488100
       11829.500        66.580100        10.238700
       12020.800        66.801300        9.9937400
       12215.300        67.003000        9.7531500
       12412.800        67.187300        9.5169700
       12613.600        67.356000        9.2852100
       12817.600        67.510500        9.0578700
       13025.000        67.652200        8.8349200
       13235.600        67.782000        8.6163600
       13449.700        67.901100        8.4021800
       13667.200        68.010300        8.1923300
       13888.300        68.110300        7.9868100
       14112.900        68.201800        7.7855700
       14341.200        68.285400        7.5885800
       14573.100        68.361700        7.3957900
       14808.900        68.431300        7.2071700
       15048.400        68.494400        7.0226700
       15291.800        68.551700        6.8422400
       15539.100        68.603500        6.6658300
       15790.400        68.650000        6.4933800
       16045.800        68.691800        6.3248500
       16305.400        68.729100        6.1601700
       16569.100        68.762100        5.9992900
       16837.100        68.791100        5.8421500
       17109.400        68.816500        5.6887000
       17386.100        68.838300        5.5388600
       17667.400        68.856900        5.3925900
       17953.100        68.872500        5.2498100
       18243.500        68.885100        5.1104700
       18538.600        68.895100        4.9745100
       18838.400        68.902600        4.8418500
       19143.100        68.907700        4.7124500
       19452.700        68.910600        4.5862400
       19767.400        68.911400        4.4631500
       20087.100        68.910200        4.3431300
       20412.000        68.907300        4.2261100
       20742.100        68.902600        4.1120300
       21077.600        68.896400        4.0008200
       21418.500        68.888600        3.8924500
       21765.000        68.879400        3.7868200
       22117.000        68.869000        3.6839100
       22474.700        68.857300        3.5836300
       22838.200        68.844400        3.4859400
       23207.600        68.830500        3.3907700
       23583.000        68.815600        3.2980700
       23964.400        68.799700        3.2077900
       24352.000        68.783000        3.1198700
       24745.900        68.765400        3.0342500
       25146.200        68.747100        2.9508800
       25552.900        68.728100        2.8697200
       25966.200        68.708400        2.7907000
       26386.100        68.688100        2.7137700
       26812.900        68.667200        2.6388900
       27246.600        68.645700        2.5660100
       27687.300        68.623700        2.4950700
       28135.100        68.601200        2.4260400
       28590.200        68.578300        2.3588600
       29052.600        68.554900        2.2934800
       29522.500        68.531100        2.2298700
       30000.000        68.506900        2.1679900
       30500.000        68.379900        2.0416500
       31000.000        68.355800        1.9842800
       31500.000        68.331700        1.9294100
       32000.000        68.307600        1.8768800
       32400.000        68.288300        1.8364500
       32700.000        68.273900        1.8070200
       33100.000        68.254700        1.7688700
       33400.000        68.240300        1.7409700
       33800.000        68.221100        1.7048200
       34100.000        68.206600        1.6784800
       34400.000        68.192200        1.6527700
       34792.700        68.173400        1.6200300
       35100.000        68.158600        1.5951000
       35400.000        68.144200        1.5712700
       35700.000        68.129800        1.5480000
       36030.000        68.114000        1.5230200
       36500.000        68.091300        1.4885200
       37000.000        68.067100        1.4531400
       37500.000        68.043000        1.4190600
       38000.000        68.018800        1.3862100
       38500.000        67.994500        1.3545400
       39000.000        67.970200        1.3239900
       39500.000        67.945700        1.2945000
       40000.000        67.921200        1.2660300
       40800.000        67.881500        1.2221500
       41500.000        67.846200        1.1856700
       42300.000        67.805100        1.1460200
       43000.000        67.768500        1.1129900
       43800.000        67.725700        1.0770400
       44500.000        67.687300        1.0470400
       45300.000        67.642100        1.0142800
       46000.000        67.601200       0.98683600
       46500.000        67.571000       0.96793500
       47000.000        67.540000       0.94959100
       47500.000        67.508100       0.93178500
       48000.000        67.475200       0.91449300
       48500.000        67.441100       0.89769600
       49000.000        67.405600       0.88137600
       49500.000        67.368800       0.86551300
       49800.000        67.345900       0.85626000
       50000.000        67.330300       0.85009100
       50500.000        67.290000       0.83523500
       51000.000        67.247500       0.82037800
       51500.000        67.202700       0.80631400
       51800.000        67.174500       0.79787600
       52000.000        67.155100       0.79225000
       52300.000        67.125000       0.78425400
       52500.000        67.104300       0.77892300
       52800.000        67.072100       0.77092700
       53000.000        67.049800       0.76559600
       53300.000        67.015000       0.75801100
       53500.000        66.990900       0.75295400
       53800.000        66.953200       0.74536900
       54000.000        66.926900       0.74031200
       54300.000        66.885600       0.73311000
       54500.000        66.856600       0.72830800
       54800.000        66.810900       0.72110600
       55000.000        66.778700       0.71630400
       55300.000        66.727500       0.70943600
       55500.000        66.691200       0.70485600
       55800.000        66.633000       0.69798800
       56000.000        66.591400       0.69340900
       56200.000        66.547200       0.68903200
       56400.000        66.500000       0.68465500
       56600.000        66.449600       0.68027800
       56800.000        66.395300       0.67590100
       56900.000        66.366600       0.67379400
       57000.000        66.336700       0.67168600
       57100.000        66.305400       0.66957900
       57200.000        66.272800       0.66747200
       57300.000        66.238600       0.66536500
       57400.000        66.202800       0.66325700
       57530.000        66.153400       0.66051800
       57590.000        66.129500       0.65929000
       57660.000        66.100500       0.65785800
       57800.000        66.038900       0.65499300
       57900.000        65.991500       0.65294600
       57950.000        65.966700       0.65192300
       58000.000        65.941000       0.65090000
       58070.000        65.903400       0.64950100
       58150.000        65.858000       0.64790200
       58220.000        65.816000       0.64650200
       58300.000        65.764900       0.64490300
       58350.000        65.731100       0.64390300
       58400.000        65.695700       0.64290400
       58450.000        65.658600       0.64190400
       58500.000        65.619700       0.64090500
       58570.000        65.561600       0.63955500
       58610.000        65.526300       0.63878300
       58650.000        65.489400       0.63801200
       58680.000        65.460500       0.63743300
       58720.000        65.420100       0.63666200
       58760.000        65.377600       0.63589000
       58800.000        65.332700       0.63511900
       58850.000        65.272600       0.63415400
       58900.000        65.207500       0.63319000
       58950.000        65.136600       0.63222600
       58970.000        65.106400       0.63184000
       59000.000        65.058800       0.63126100
       59030.000        65.008200       0.63068300
       59070.000        64.935300       0.62991100
       59090.000        64.896200       0.62952600
       59110.000        64.855100       0.62914000
       59130.000        64.811800       0.62875400
       59150.000        64.766000       0.62836800
       59165.000        64.729900       0.62807900
       59180.000        64.692100       0.62779000
       59200.000        64.638800       0.62740400
       59220.000        64.581700       0.62701800
       59240.000        64.520400       0.62663200
       59260.000        64.454000       0.62624700
       59280.000        64.382000       0.62586100
       59300.000        64.302900       0.62547500
       59310.000        64.260300       0.62528200
       59320.000        64.215400       0.62508900
       59335.000        64.143100       0.62480000
       59350.000        64.063900       0.62451100
       59360.000        64.006500       0.62431800
       59370.000        63.944900       0.62412500
       59378.000        63.892000       0.62397100
       59385.000        63.842900       0.62383600
       59392.000        63.790600       0.62370100
       59400.000        63.726700       0.62354600
       59405.000        63.684000       0.62345000
       59410.000        63.639100       0.62335400
       59415.000        63.591600       0.62325700
       59420.000        63.541300       0.62316100
       59427.000        63.465300       0.62302600
       59435.000        63.369100       0.62287100
       59439.000        63.316500       0.62279400
       59442.000        63.274800       0.62273600
       59446.000        63.215700       0.62265900
       59450.000        63.152300       0.62258200
       59454.000        63.083600       0.62250500
       59458.000        63.008800       0.62242800
       59462.000        62.926700       0.62235100
       59465.000        62.859400       0.62229300
       59469.000        62.760400       0.62221600
       59471.000        62.706100       0.62217700
       59473.000        62.648200       0.62213800
       59475.000        62.586000       0.62210000
       59477.000        62.518900       0.62206100
       59478.500        62.464800       0.62203200
       59480.000        62.406900       0.62200300
       59481.500        62.344800       0.62197500
       59483.000        62.277700       0.62194600
       59484.500        62.205100       0.62191700
       59486.000        62.125100       0.62188800
       59487.500        62.037300       0.62185900
       59489.000        61.938900       0.62183000
       59490.000        61.866600       0.62181100
       59491.000        61.787200       0.62179100
       59492.500        61.652400       0.62176200
       59494.000        61.492000       0.62173300
       59495.000        61.366000       0.62171400
       59496.000        61.217600       0.62169500
       59496.700        61.096600       0.62168100
       59497.500        60.934300       0.62166600
       59498.300        60.735300       0.62165100
       59499.000        60.516000       0.62163700
       59499.700        60.232400       0.62162400
       59500.400        59.834600       0.62161000
       59501.100        59.205600       0.62159700
       59501.800        58.129000       0.62158300
       59501.800        58.116300       0.62158300
       59501.900        58.326700        1.3470100
       59502.100        58.733200        2.7978800
       59502.400        59.332700        4.9741700
       59503.000        60.497100        9.3267600
       59503.700        61.614200       0.62154700
       59503.900        62.047700       0.62154300
       59504.100        62.483900       0.62153800
       59504.900        61.421000        2.5712600
       59506.100        60.755200        1.8128900
       59507.000        60.597400        3.3368600
       59508.000        61.067900        3.3309300
       59509.000        61.417700        3.3249900
       59510.000        61.576100        3.3190100
       59510.700        61.664200        3.3147400
       59511.500        61.751200        3.3098600
       59512.300        61.828200        3.3046600
       59513.000        61.889200        3.3001100
       59514.000        61.965800        3.2941700
       59515.000        62.035100        3.2882400
       59516.000        62.096900        3.2828200
       59517.000        62.153200        3.2774000
       59517.700        62.189500        3.2754100
       59518.500        62.228700        3.2731400
       59519.200        62.261400        3.2711500
       59520.000        62.296600        3.2688700
       59521.500        62.358100        3.2684900
       59523.000        62.416100        3.2681000
       59524.000        62.451800        3.2678500
       59525.000        62.485600        3.2676000
       59528.000        62.580200        3.2731600
       59530.000        62.638400        3.2768700
       59533.000        62.720100        3.2845600
       59535.000        62.772100        3.2896900
       59538.000        62.845900        3.2966400
       59539.000        62.869500        3.2989500
       59540.000        62.893100        3.3012800
       59544.000        62.982600        3.3074900
       59548.000        63.066100        3.3109000
       59552.000        63.143300        3.3118400
       59555.000        63.196900        3.3113800
       59559.000        63.263300        3.3083600
       59563.000        63.324100        3.3053400
       59567.000        63.379600        3.3017300
       59570.000        63.418200        3.2990200
       59574.000        63.466600        3.2965900
       59578.000        63.512200        3.2941500
       59582.000        63.554400        3.2927200
       59585.000        63.584900        3.2916400
       59593.000        63.661200        3.2911100
       59600.000        63.723200        3.2917400
       59608.000        63.790700        3.2913000
       59615.000        63.846900        3.2909200
       59622.000        63.899000        3.2905300
       59630.000        63.954600        3.2900900
       59640.000        64.019300        3.2891200
       59650.000        64.078900        3.2881600
       59660.000        64.134600        3.2871900
       59670.000        64.187200        3.2862200
       59677.000        64.222400        3.2857600
       59685.000        64.260900        3.2852300
       59700.000        64.329100        3.2842400
       59715.000        64.392100        3.2832500
       59730.000        64.452000        3.2822600
       59745.000        64.507600        3.2812800
       59760.000        64.559900        3.2802900
       59780.000        64.625100        3.2789700
       59800.000        64.685800        3.2776500
       59810.000        64.714700        3.2768000
       59820.000        64.742700        3.2759400
       59850.000        64.821800        3.2733900
       59870.000        64.870900        3.2716800
       59900.000        64.940200        3.2691200
       59920.000        64.983600        3.2674200
       59950.000        65.044800        3.2648600
       59970.000        65.083300        3.2631600
       59985.000        65.111100        3.2618800
       59993.000        65.125500        3.2612000
       60000.000        65.137900        3.2606000
       60020.000        65.172500        3.2590100
       60050.000        65.222100        3.2566100
       60070.000        65.253800        3.2550200
       60100.000        65.299400        3.2526300
       60150.000        65.370800        3.2486400
       60200.000        65.437000        3.2446600
       60250.000        65.498800        3.2406700
       60300.000        65.556700        3.2366900
       60350.000        65.611400        3.2327000
       60400.000        65.663000        3.2287200
       60450.000        65.712000        3.2247300
       60500.000        65.758800        3.2207400
       60550.000        65.803500        3.2167600
       60600.000        65.845800        3.2127700
       60650.000        65.886200        3.2087900
       60700.000        65.924900        3.2048000
       60750.000        65.962100        3.2008200
       60800.000        65.997700        3.1968300
       60870.000        66.045300        3.1912900
       60950.000        66.096700        3.1849700
       61020.000        66.138800        3.1794300
       61100.000        66.185100        3.1731000
       61200.000        66.240600        3.1662300
       61300.000        66.293500        3.1593600
       61400.000        66.344000        3.1524800
       61500.000        66.392500        3.1456100
       61600.000        66.438900        3.1374100
       61700.000        66.482800        3.1292000
       61800.000        66.525100        3.1210000
       61900.000        66.565500        3.1128000
       62000.000        66.603900        3.1040900
       62100.000        66.640700        3.0953700
       62200.000        66.675900        3.0866600
       62300.000        66.709700        3.0779500
       62370.000        66.732600        3.0719200
       62450.000        66.758000        3.0650300
       62600.000        66.803500        3.0521200
       62800.000        66.860200        3.0358000
       62900.000        66.887300        3.0276400
       63000.000        66.913500        3.0194800
       63150.000        66.951100        3.0081300
       63300.000        66.987300        2.9967800
       63400.000        67.010700        2.9892200
       63500.000        67.033400        2.9816500
       63650.000        67.066300        2.9712600
       63800.000        67.098200        2.9608700
       63900.000        67.118500        2.9539500
       64000.000        67.138400        2.9470200
       64300.000        67.198100        2.9273300
       64500.000        67.235900        2.9142000
       64800.000        67.289700        2.8940500
       65000.000        67.324100        2.8806100
       65300.000        67.373400        2.8598500
       65500.000        67.404700        2.8460100
       65700.000        67.435100        2.8321700
       65900.000        67.464500        2.8183300
       66200.000        67.506200        2.7975700
       66400.000        67.532900        2.7837300
       66600.000        67.558700        2.7699000
       66830.000        67.587200        2.7539800
       66960.000        67.602800        2.7451100
       67100.000        67.619200        2.7355600
       67400.000        67.653200        2.7150900
       67700.000        67.685500        2.6951000
       67850.000        67.701100        2.6851000
       68000.000        67.716300        2.6751000
       68300.000        67.745800        2.6557400
       68500.000        67.764700        2.6428300
       68800.000        67.792100        2.6234800
       69000.000        67.809700        2.6105700
       69300.000        67.835200        2.5919500
       69500.000        67.851600        2.5795300
       69800.000        67.875400        2.5609100
       70000.000        67.890400        2.5484900
       70300.000        67.912500        2.5311100
       70500.000        67.926900        2.5195200
       70800.000        67.947900        2.5021500
       71000.000        67.961500        2.4905600
       71300.000        67.981400        2.4738100
       71500.000        67.994300        2.4626400
       71800.000        68.013100        2.4458900
       72000.000        68.025300        2.4347200
       72400.000        68.049000        2.4134100
       72800.000        68.071600        2.3921000
       73200.000        68.093200        2.3707800
       73500.000        68.108900        2.3548000
       73900.000        68.129200        2.3346400
       74200.000        68.143800        2.3195300
       74600.000        68.162700        2.2993700
       74960.000        68.179100        2.2812300
       75200.000        68.189700        2.2695700
       75500.000        68.202600        2.2550000
       75800.000        68.215200        2.2406800
       76000.000        68.223500        2.2311400
       76300.000        68.235500        2.2172200
       76600.000        68.247200        2.2033000
       76900.000        68.258700        2.1893800
       77110.000        68.266500        2.1796300
       77500.000        68.280700        2.1621900
       77900.000        68.294900        2.1443100
       78300.000        68.308700        2.1264200
       78600.000        68.318700        2.1130100
       79000.000        68.331500        2.0956100
       79300.000        68.340800        2.0825600
       79700.000        68.352900        2.0655500
       79850.000        68.357300        2.0591800
       80000.000        68.361700        2.0528000
       80400.000        68.373200        2.0362300
       80800.000        68.384100        2.0196600
       81200.000        68.394700        2.0031000
       81500.000        68.402400        1.9906700
       81900.000        68.412400        1.9748900
       82300.000        68.422100        1.9591100
       82700.000        68.431400        1.9433300
       83000.000        68.438300        1.9315000
       83500.000        68.449300        1.9124300
       84000.000        68.459900        1.8933600
       84500.000        68.470000        1.8748800
       85000.000        68.479900        1.8564100
       85400.000        68.487500        1.8419800
       85800.000        68.494800        1.8275600
       86200.000        68.501800        1.8131300
       86500.000        68.506900        1.8023100
       87300.000        68.519800        1.7747700
       88000.000        68.530500        1.7506800
       88500.000        68.537700        1.7341200
       89000.000        68.544600        1.7175600
       89500.000        68.551300        1.7014900
       90000.000        68.557800        1.6854200
       90800.000        68.567700        1.6603500
       91500.000        68.575600        1.6384200
       92300.000        68.584100        1.6144500
       93000.000        68.591000        1.5934700
       93500.000        68.595700        1.5790300
       94000.000        68.600200        1.5645800
       95000.000        68.608500        1.5365100
       95800.000        68.614600        1.5150400
       96500.000        68.619700        1.4962500
       97300.000        68.625200        1.4756600
       98000.000        68.629700        1.4576400
       99000.000        68.635800        1.4328800
       99500.000        68.638600        1.4207500
       100000.00        68.641400        1.4087900
