;  Atomic scattering factors for Xe.
;   
;  Concatenation of data from CXRO <http://www-cxro.lbl.gov>
;  and LLNL <http://www-phys.llnl.gov/V_Div/scattering/asf.html>
;  
;  E (eV) f1 f2
;---------------
       10.000000       -9999.0000    3.1201400e-15
       10.161700       -9999.0000    3.1706100e-15
       10.326100       -9999.0000    3.2218900e-15
       10.493100       -9999.0000    3.2740000e-15
       10.662800       -9999.0000    3.3269600e-15
       10.835300       -9999.0000    3.3807700e-15
       11.010600       -9999.0000    3.4354500e-15
       11.188600       -9999.0000    3.4910200e-15
       11.369600       -9999.0000    3.5474800e-15
       11.553500       -9999.0000    3.6048600e-15
       11.740400       -9999.0000    3.6631600e-15
       11.930300       -9999.0000    3.7224100e-15
       12.000000       -9999.0000    3.7441700e-15
       12.200000       -9999.0000    3.0773900e-05
       12.319300       -9999.0000        1.7855100
       12.518600       -9999.0000        1.8616300
       12.721000       -9999.0000        7.8999800
       12.926800       -9999.0000        9.2877700
       13.135900       -9999.0000        10.180600
       13.348300       -9999.0000        10.845000
       13.564200       -9999.0000        11.478300
       13.783600       -9999.0000        11.998700
       14.006600       -9999.0000        12.550300
       14.233100       -9999.0000        13.146400
       14.463300       -9999.0000        13.335600
       14.697300       -9999.0000        13.470500
       14.935000       -9999.0000        13.606800
       15.176500       -9999.0000        13.744500
       15.422000       -9999.0000        13.786700
       15.671400       -9999.0000        13.692600
       15.924900       -9999.0000        13.599100
       16.182500       -9999.0000        13.506300
       16.444200       -9999.0000        13.414100
       16.710200       -9999.0000        13.230200
       16.980500       -9999.0000        12.938400
       17.255100       -9999.0000        12.653000
       17.534200       -9999.0000        12.373800
       17.817800       -9999.0000        12.100900
       18.106000       -9999.0000        11.834000
       18.398900       -9999.0000        11.559700
       18.696400       -9999.0000        11.262000
       18.998800       -9999.0000        10.972000
       19.306100       -9999.0000        10.689500
       19.618400       -9999.0000        10.414200
       19.935700       -9999.0000        10.146000
       20.258200       -9999.0000        9.8847200
       20.585800       -9999.0000        9.6301700
       20.918800       -9999.0000        9.3821800
       21.257100       -9999.0000        9.1405700
       21.600900       -9999.0000        8.9051800
       21.950300       -9999.0000        8.6532600
       22.305300       -9999.0000        8.2407300
       22.666100       -9999.0000        7.8478800
       23.032700       -9999.0000        7.4737500
       23.405300       -9999.0000        7.1174500
       23.783800       -9999.0000        6.7781400
       24.168500       -9999.0000        6.4550000
       24.559400       -9999.0000        6.1472700
       24.956600       -9999.0000        5.8542100
       25.360300       -9999.0000        5.5751200
       25.770500       -9999.0000        5.3093400
       26.187300       -9999.0000        5.0562300
       26.610900       -9999.0000        4.8151800
       27.041300       -9999.0000        4.5856300
       27.478600       -9999.0000        4.3587900
       27.923100       -9999.0000        4.1424200
       28.374700       -9999.0000        3.9367900
       28.833700       -9999.0000        3.7413600
       29.300000        9.2478700        3.5556400
       29.773900        9.1540100        3.3791400
       30.255500        9.0566500        3.2113900
       30.744900        8.9565900        3.0519800
       31.242100        8.8549500        2.9004700
       31.747500        8.7525200        2.7564900
       32.260900        8.6686300        2.6111700
       32.782700        8.5657800        2.4443200
       33.313000        8.4392100        2.2881300
       33.851800        8.3028600        2.1419200
       34.399300        8.1584500        2.0050500
       34.955700        8.0068600        1.8769300
       35.521100        7.8485500        1.7569900
       36.095600        7.6835800        1.6447200
       36.679400        7.5042800        1.5396300
       37.272700        7.3212700        1.4580800
       37.875500        7.1433500        1.3849900
       38.488200        6.9644500        1.3155600
       39.110700        6.7722200        1.2496100
       39.743200        6.5770400        1.2082200
       40.386100        6.3926100        1.1765000
       41.039300        6.2116800        1.1456200
       41.703100        6.0298200        1.1155400
       42.377600        5.8421400        1.0870200
       43.063000        5.6538200        1.0673100
       43.759500        5.4642900        1.0479500
       44.467300        5.2708100        1.0289400
       45.186500        5.0714700        1.0102800
       45.917400        4.8593100       0.99196200
       46.660000        4.6408100       0.98535100
       47.414700        4.4190900       0.98002700
       48.181600        4.1895700       0.97473200
       48.960900        3.9422800       0.97057600
       49.752800        3.6873300       0.97968000
       50.557600        3.4262600       0.98887000
       51.375300        3.1517200       0.99814500
       52.206200        2.8594500        1.0115700
       53.050600        2.5523500        1.0299800
       53.908700        2.2278000        1.0487300
       54.780600        1.8789200        1.0678100
       55.666700        1.4995700        1.0906700
       56.567000        1.0879000        1.1178300
       57.482000       0.63560300        1.1456700
       58.411700       0.12888500        1.1742000
       59.356400      -0.46952700        1.2034300
       60.316500       -1.1707400        1.2718900
       61.292100       -2.0189800        1.3584700
       62.283400       -3.3295300        1.5484000
       63.290800       -4.7849200        2.6000300
       64.314500       -6.0732400        4.3659400
       65.354700       -4.9911100        7.3311400
       66.411800       -3.1417400        7.3120500
       67.485900       -2.7542100        6.3260700
       68.577500       -3.3389000        5.4730600
       69.686700       -4.9673300        5.2633200
       70.813800       -6.4292700        6.1301500
       71.959100       -7.4436400        7.1397500
       73.123000       -8.3690100        8.3156000
       74.305700       -9.2070900        9.6851400
       75.507600       -9.8876700        11.280200
       76.728900       -10.273400        12.991600
       77.969900       -10.561900        14.711600
       79.231000       -10.563800        16.659400
       80.512500       -10.385900        18.410800
       81.814700       -10.197900        20.249200
       83.138000       -9.8686200        22.271100
       84.482700       -8.8949400        24.376900
       85.849100       -7.8739400        25.999700
       87.237700       -6.9713400        27.730600
       88.648700       -5.9149200        29.576600
       90.082500       -4.3209700        31.545600
       91.539500       -2.5419600        32.987900
       93.020100      -0.81793300        34.395000
       94.524600        1.0918000        35.862100
       96.053500        3.6171200        37.088100
       97.607100        6.0427400        37.638300
       99.185800        8.2060900        38.196500
       100.79000        10.475600        38.763100
       102.42000        13.132600        39.104000
       104.07700        15.686400        38.944800
       105.76000        18.066500        38.786300
       107.47100        20.763300        38.628400
       109.20900        23.421700        37.677200
       110.97500        25.786500        36.632300
       112.77000        28.683300        35.616300
       114.59400        31.149000        33.211700
       116.44800        32.718300        30.947900
       118.33100        33.962300        28.838400
       120.24500        35.140800        26.872600
       122.19000        36.473900        24.740800
       124.16600        37.140900        21.971100
       126.17500        37.222900        19.511300
       128.21500        37.016300        17.326900
       130.28900        36.618000        15.387100
       132.39700        36.098100        13.664500
       134.53800        35.489700        12.134700
       136.71400        34.827000        10.776200
       138.92500        34.119000        9.5697400
       141.17200        33.398300        8.5168700
       143.45600        32.675500        7.5821100
       145.77600        31.959100        6.7499700
       148.13400        31.247700        6.0091600
       150.53000        30.548400        5.3496300
       152.96400        29.869300        4.7585300
       155.43900        29.182900        4.2037300
       157.95300        28.479500        3.7136100
       160.50700        27.750600        3.3099600
       163.10300        27.055400        3.0080300
       165.74200        26.396800        2.7336500
       168.42200        25.700700        2.5081400
       171.14600        25.069200        2.4229000
       173.91500        24.501000        2.3405600
       176.72700        23.917100        2.2908500
       179.58600        23.388300        2.3287700
       182.49100        22.927700        2.3673100
       185.44200        22.498300        2.4219200
       188.44200        22.099500        2.4819400
       191.48900        21.711400        2.5434500
       194.58700        21.329100        2.6410700
       197.73400        20.980600        2.7693000
       200.93200        20.669200        2.9037500
       204.18200        20.380500        3.0447300
       207.48500        20.111700        3.1936200
       210.84000        19.862500        3.3504600
       214.25100        19.631600        3.5150000
       217.71600        19.418400        3.6876200
       221.23700        19.226700        3.8687200
       224.81600        19.051700        4.0505300
       228.45200        18.889600        4.2401900
       232.14700        18.744200        4.4387400
       235.90200        18.617100        4.6465800
       239.71700        18.510600        4.8641600
       243.59500        18.446000        5.0919300
       247.53500        18.411200        5.2935400
       251.53800        18.373800        5.4738700
       255.60700        18.339500        5.6603400
       259.74100        18.317300        5.8531600
       263.94200        18.311400        6.0525500
       268.21100        18.351400        6.2587200
       272.54900        18.421600        6.4227200
       276.95700        18.475600        6.5481900
       281.43700        18.519300        6.6761100
       285.98900        18.565200        6.8065400
       290.61500        18.619500        6.9395100
       295.31500        18.689700        7.0750800
       300.09200        18.805700        7.2133100
       304.94500        18.923400        7.2606000
       309.87800        19.008000        7.2971600
       314.89000        19.071300        7.3339200
       319.98300        19.124800        7.3708500
       325.15800        19.171300        7.4079700
       330.41800        19.212400        7.4452900
       335.76200        19.249300        7.4827800
       341.19200        19.282900        7.5204700
       346.71100        19.313800        7.5583500
       352.31900        19.342600        7.5964100
       358.01700        19.370100        7.6346700
       363.80800        19.397400        7.6731300
       369.69200        19.426300        7.7117700
       375.67200        19.465500        7.7506100
       381.74800        19.503100        7.7607100
       387.92200        19.525300        7.7641800
       394.19700        19.534500        7.7676500
       400.57300        19.535600        7.7711200
       407.05200        19.529400        7.7746000
       413.63500        19.516400        7.7780700
       420.32600        19.497200        7.7815400
       427.12400        19.472200        7.7850300
       434.03200        19.442200        7.7885000
       441.05200        19.408200        7.7919800
       448.18600        19.378300        7.7954700
       455.43500        19.364500        7.7877600
       462.80200        19.325200        7.7196000
       470.28700        19.243800        7.6520600
       477.89400        19.134400        7.5851000
       485.62300        18.999200        7.5187300
       493.47800        18.838300        7.4529400
       501.45900        18.650600        7.3877200
       509.57000        18.434300        7.3230800
       517.81200        18.186700        7.2590100
       526.18700        17.904600        7.1954900
       534.69800        17.583900        7.1325200
       543.34600        17.214900        7.0701100
       552.13400        16.795900        7.0167100
       561.06500        16.325300        6.9677900
       570.13900        15.790800        6.9192100
       579.36100        15.177500        6.8709700
       588.73200        14.466800        6.8230700
       598.25400        13.636700        6.7755000
       607.93000        12.649300        6.7216300
       617.76300        11.439200        6.6566800
       627.75500        9.9154400        6.5923500
       637.90800        7.9245800        6.5286500
       648.22600        5.1540500        6.4655500
       658.71100       0.82338900        6.4030700
       669.36500       -8.2188300        6.3411900
       676.30000       -53.126500        6.3017600
       676.50000       -53.076500        40.044300
       680.19100       -13.591200        39.716200
       691.19300        1.8828700        38.764400
       702.37200        8.5097800        37.835500
       713.73300        12.834800        36.928700
       725.27700        16.044700        36.043700
       737.00800        18.580500        35.180000
       748.92800        20.655900        34.336900
       761.04200        22.390600        33.514000
       773.35100        23.846000        32.710800
       785.85900        25.073900        31.949300
       798.57000        26.140200        31.246800
       811.48600        27.072900        30.559800
       824.61100        27.873100        29.887800
       837.94900        28.543500        29.230600
       851.50200        29.079400        28.587900
       865.27400        29.462300        27.959300
       879.26900        29.640300        27.344500
       893.49100        29.369100        26.743300
       907.94300        28.845300        27.122000
       922.62800        28.823900        27.966300
       937.55100        29.344500        28.836900
       952.71500        30.213100        29.734600
       968.12400        31.875300        30.435800
       983.78300        33.530600        29.997500
       999.69500        34.507500        29.565600
       1015.8600        35.389100        29.139900
       1032.2900        36.174500        28.720300
       1048.9900        36.888600        28.308100
       1065.9600        37.550300        27.908500
       1083.2000        38.172500        27.514500
       1100.7200        38.760800        27.126100
       1118.5200        39.320400        26.743000
       1136.6100        39.855500        26.365500
       1155.0000        40.370400        25.993200
       1173.6800        40.868500        25.626000
       1192.6600        41.354200        25.264400
       1211.9500        41.833600        24.907700
       1231.5500        42.319900        24.556000
       1251.4700        42.824700        24.168900
       1271.7200        43.313200        23.741500
       1292.2900        43.748000        23.265300
       1313.1900        44.129800        22.798500
       1334.4300        44.478300        22.341200
       1356.0100        44.799900        21.893200
       1377.9400        45.098800        21.454000
       1400.2300        45.377400        21.023500
       1422.8800        45.637600        20.601700
       1445.8900        45.881300        20.188300
       1469.2800        46.109600        19.783400
       1493.0400        46.323700        19.386800
       1517.1900        46.525000        18.999200
       1541.7300        46.715000        18.619500
       1566.6700        46.894500        18.247600
       1592.0100        47.064100        17.882800
       1617.7600        47.224000        17.525400
       1643.9200        47.375500        17.175300
       1670.5100        47.519200        16.831800
       1697.5300        47.655500        16.495300
       1724.9900        47.789100        16.165600
       1752.8900        47.916600        15.834300
       1781.2400        48.032300        15.507000
       1810.0500        48.139100        15.184300
       1839.3200        48.236500        14.868000
       1869.0700        48.326200        14.558400
       1899.3000        48.409400        14.255700
       1930.0200        48.486600        13.958800
       1961.2400        48.557600        13.668100
       1992.9600        48.621800        13.383500
       2025.2000        48.686200        13.110900
       2057.9500        48.750100        12.833300
       2091.2400        48.803300        12.559900
       2125.0600        48.851200        12.291400
       2159.4300        48.893600        12.027800
       2194.3600        48.930800        11.768900
       2229.8500        48.963300        11.514900
       2265.9200        48.991300        11.265400
       2302.5700        49.014600        11.020100
       2339.8100        49.033300        10.779700
       2377.6600        49.048000        10.543300
       2416.1100        49.058100        10.311200
       2455.1900        49.064200        10.083700
       2494.9000        49.066300        9.8596200
       2535.2600        49.063900        9.6405800
       2576.2600        49.058000        9.4250300
       2617.9300        49.047700        9.2134700
       2660.2700        49.033500        9.0062000
       2703.3000        49.015500        8.8023100
       2747.0300        48.993500        8.6025400
       2791.4600        48.967500        8.4061700
       2836.6100        48.937300        8.2136500
       2882.4900        48.903200        8.0246900
       2929.1100        48.864800        7.8392200
       2976.4800        48.822100        7.6572900
       3024.6300        48.775100        7.4787900
       3073.5500        48.723600        7.3036300
       3123.2600        48.667400        7.1316500
       3173.7800        48.606200        6.9629500
       3225.1100        48.540000        6.7974800
       3277.2700        48.468300        6.6350400
       3330.2800        48.390900        6.4756700
       3384.1500        48.307300        6.3193000
       3438.8800        48.217200        6.1659000
       3494.5000        48.120000        6.0154400
       3551.0200        48.015100        5.8677400
       3608.4600        47.901700        5.7227600
       3666.8200        47.778900        5.5805600
       3726.1300        47.645900        5.4412000
       3786.4000        47.501300        5.3042400
       3847.6400        47.343400        5.1699600
       3909.8700        47.170500        5.0382000
       3973.1100        46.980200        4.9089000
       4037.3800        46.769500        4.7820300
       4102.6800        46.534500        4.6575600
       4169.0300        46.270000        4.5355000
       4236.4600        45.969300        4.4157500
       4304.9800        45.622200        4.2981600
       4374.6200        45.214000        4.1827100
       4445.3700        44.721700        4.0695300
       4517.2700        44.105700        3.9585400
       4590.3300        43.288400        3.8495200
       4664.5800        42.078300        3.7426000
       4740.0300        39.697900        3.6377100
       4787.1000        24.737000        3.5745700
       4787.3000        24.738800        11.230000
       4816.6900        38.534600        11.115200
       4894.6000        41.472700        10.819800
       4973.7700        42.369400        10.532400
       5054.2100        42.244400        10.252500
       5107.1000        35.541600        10.074900
       5107.3000        35.545900        13.739600
       5135.9600        42.224300        13.617200
       5219.0300        44.281100        13.272000
       5303.4400        45.208300        12.935700
       5389.2200        45.604000        12.607900
       5452.7000        42.436900        12.373900
       5452.9000        42.441200        14.272600
       5476.3900        45.715200        14.180900
       5564.9700        47.251000        13.844200
       5654.9800        48.122300        13.514000
       5746.4400        48.796700        13.189700
       5839.3900        49.358500        12.871500
       5933.8300        49.842300        12.559200
       6029.8100        50.266700        12.253000
       6127.3300        50.643600        11.952700
       6226.4400        50.981200        11.658400
       6327.1500        51.285400        11.370000
       6429.4800        51.560900        11.087600
       6533.4800        51.811200        10.810600
       6639.1500        52.039000        10.539700
       6746.5400        52.247100        10.274600
       6855.6500        52.437200        10.015100
       6966.5400        52.611200        9.7612500
       7079.2200        52.770600        9.5128100
       7193.7200        52.916500        9.2699000
       7310.0700        53.050100        9.0323400
       7428.3100        53.172500        8.8003700
       7548.4500        53.284600        8.5734700
       7670.5400        53.387100        8.3517100
       7794.6100        53.480600        8.1350700
       7920.6800        53.566000        7.9236600
       8048.7900        53.643800        7.7169500
       8178.9800        53.714500        7.5151600
       8311.2600        53.778600        7.3181000
       8445.6900        53.836400        7.1258300
       8582.2900        53.888700        6.9382400
       8721.1100        53.935600        6.7550800
       8862.1600        53.977600        6.5763300
       9005.5000        54.014800        6.4018700
       9151.1600        54.047700        6.2318300
       9299.1700        54.076500        6.0659300
       9449.5800        54.101500        5.9040800
       9602.4200        54.122900        5.7463300
       9757.7300        54.140900        5.5925700
       9915.5500        54.155900        5.4427000
       10075.900        54.168100        5.2965000
       10238.900        54.177500        5.1540100
       10404.500        54.184300        5.0151400
       10572.800        54.188800        4.8797900
       10743.800        54.191000        4.7479200
       10917.600        54.191100        4.6194200
       11094.200        54.189200        4.4942300
       11273.600        54.185600        4.3722800
       11455.900        54.180200        4.2534900
       11641.200        54.173200        4.1377800
       11829.500        54.164800        4.0250800
       12020.800        54.154900        3.9153400
       12215.300        54.143800        3.8084600
       12412.800        54.131500        3.7043900
       12613.600        54.118000        3.6030700
       12817.600        54.103500        3.5044100
       13025.000        54.088000        3.4083700
       13235.600        54.071600        3.3148700
       13449.700        54.054300        3.2238600
       13667.200        54.036300        3.1352700
       13888.300        54.017500        3.0490400
       14112.900        53.998000        2.9651100
       14341.200        53.977900        2.8834400
       14573.100        53.957200        2.8039500
       14808.900        53.936000        2.7266000
       15048.400        53.914200        2.6513300
       15291.800        53.891900        2.5780800
       15539.100        53.869200        2.5068200
       15790.400        53.846100        2.4374800
       16045.800        53.822500        2.3700100
       16305.400        53.798600        2.3043700
       16569.100        53.774300        2.2405200
       16837.100        53.749700        2.1784000
       17109.400        53.724700        2.1179600
       17386.100        53.699500        2.0591800
       17667.400        53.673900        2.0019900
       17953.100        53.648000        1.9463600
       18243.500        53.621800        1.8922500
       18538.600        53.595200        1.8396200
       18838.400        53.568400        1.7884300
       19143.100        53.541300        1.7386400
       19452.700        53.513800        1.6902100
       19767.400        53.486100        1.6431100
       20087.100        53.457900        1.5973000
       20412.000        53.429400        1.5527500
       20742.100        53.400500        1.5094200
       21077.600        53.371100        1.4672700
       21418.500        53.341300        1.4262900
       21765.000        53.311000        1.3864300
       22117.000        53.280100        1.3476700
       22474.700        53.248600        1.3099800
       22838.200        53.216500        1.2733200
       23207.600        53.183600        1.2376700
       23583.000        53.149900        1.2030000
       23964.400        53.115300        1.1692900
       24352.000        53.079600        1.1365000
       24745.900        53.042800        1.1046200
       25146.200        53.004700        1.0736100
       25552.900        52.965100        1.0434600
       25966.200        52.923800        1.0141400
       26386.100        52.880500       0.98562500
       26812.900        52.835000       0.95789600
       27246.600        52.787000       0.93092900
       27687.300        52.735800       0.90470600
       28135.100        52.681200       0.87920200
       28590.200        52.622300       0.85440200
       29052.600        52.558400       0.83028300
       29522.500        52.490400       0.80682700
       30000.000        52.402800       0.78401600
       30300.000        52.297100       0.73920600
       30500.000        52.259400       0.73025000
       30800.000        52.199000       0.71742400
       30900.000        52.177800       0.71314900
       31000.000        52.156000       0.70887400
       31150.000        52.122100       0.70274700
       31300.000        52.086700       0.69662000
       31400.000        52.062100       0.69253600
       31500.000        52.036600       0.68845100
       31650.000        51.996800       0.68259300
       31800.000        51.954800       0.67673500
       31900.000        51.925500       0.67282900
       32000.000        51.894900       0.66892400
       32150.000        51.846700       0.66325800
       32300.000        51.795100       0.65759300
       32450.000        51.739800       0.65207500
       32530.000        51.708600       0.64913200
       32600.000        51.680200       0.64655700
       32700.000        51.637700       0.64298800
       32800.000        51.592700       0.63941900
       32900.000        51.544900       0.63585000
       33000.000        51.493900       0.63228100
       33070.000        51.456100       0.62985700
       33150.000        51.410500       0.62708600
       33220.000        51.368300       0.62466200
       33300.000        51.317100       0.62189200
       33380.000        51.262400       0.61922500
       33450.000        51.211200       0.61689100
       33530.000        51.148200       0.61422400
       33600.000        51.088800       0.61189000
       33640.000        51.052700       0.61055700
       33680.000        51.014900       0.60922300
       33720.000        50.975300       0.60789000
       33750.000        50.944300       0.60689000
       33790.000        50.900900       0.60555600
       33830.000        50.855200       0.60422300
       33860.000        50.819100       0.60322300
       33900.000        50.768300       0.60188900
       33940.000        50.714300       0.60062400
       33980.000        50.656400       0.59935800
       34010.000        50.610200       0.59840900
       34050.000        50.544400       0.59714400
       34090.000        50.472900       0.59587800
       34110.000        50.434700       0.59524500
       34130.000        50.394700       0.59461300
       34150.000        50.352800       0.59398000
       34170.000        50.308600       0.59334700
       34185.000        50.273900       0.59287300
       34200.000        50.237800       0.59239800
       34230.000        50.160600       0.59144900
       34250.000        50.104900       0.59081600
       34270.000        50.045400       0.59018400
       34300.000        49.947700       0.58923500
       34310.000        49.912500       0.58891800
       34320.000        49.875900       0.58860200
       34335.000        49.817800       0.58812700
       34350.000        49.755600       0.58765300
       34365.000        49.688600       0.58717800
       34380.000        49.616100       0.58670400
       34390.000        49.564200       0.58638700
       34400.000        49.509100       0.58607100
       34410.000        49.450400       0.58575500
       34420.000        49.387400       0.58543800
       34430.000        49.319600       0.58512200
       34440.000        49.246300       0.58480600
       34450.000        49.166300       0.58448900
       34460.000        49.078400       0.58417300
       34465.000        49.031000       0.58401500
       34470.000        48.981000       0.58385700
       34475.000        48.928000       0.58369800
       34480.000        48.871700       0.58354000
       34485.000        48.811600       0.58338200
       34490.000        48.747200       0.58322400
       34495.000        48.677800       0.58306600
       34500.000        48.602700       0.58290700
       34505.000        48.520700       0.58274900
       34510.000        48.430600       0.58259100
       34515.000        48.330300       0.58243300
       34518.000        48.264400       0.58233800
       34520.000        48.217600       0.58227500
       34523.000        48.142500       0.58218000
       34525.000        48.088800       0.58211700
       34528.000        48.001600       0.58202200
       34530.000        47.938300       0.58195800
       34533.000        47.834300       0.58186300
       34535.000        47.757600       0.58180000
       34538.000        47.628500       0.58170500
       34540.000        47.530800       0.58164200
       34542.000        47.421100       0.58157900
       34543.000        47.360700       0.58154700
       34544.000        47.295700       0.58151500
       34545.000        47.225900       0.58148400
       34546.000        47.149500       0.58145200
       34547.000        47.066200       0.58142100
       34548.000        46.973900       0.58138900
       34549.000        46.870600       0.58135700
       34550.000        46.752800       0.58132600
       34551.000        46.616700       0.58129400
       34552.000        46.453300       0.58126200
       34552.500        46.358500       0.58124700
       34553.000        46.250900       0.58123100
       34553.500        46.127100       0.58121500
       34554.000        45.980400       0.58119900
       34554.600        45.762000       0.58118000
       34555.200        45.463700       0.58116100
       34555.800        44.999500       0.58114200
       34556.500        43.878000       0.58112000
       34556.500        43.862000       0.58112000
       34556.600        44.090400        1.4116100
       34556.800        44.516200        3.0725800
       34557.200        45.320800        6.3945200
       34557.900        46.096100       0.58107800
       34557.900        46.087000       0.58107700
       34558.500        45.987800       0.58105800
       34558.600        46.061600        4.7250300
       34558.900        46.208300       0.63816600
       34559.200        46.370000        1.0686200
       34559.300        46.336000       0.96343500
       34559.900        45.415100        1.9084500
       34560.200        45.387600        2.6675500
       34560.600        45.523500        2.9918200
       34561.000        45.927100        3.0140600
       34561.400        46.054400        3.0362500
       34561.800        46.151800        3.0558500
       34562.200        46.232200        3.0754500
       34562.600        46.302000        3.0933800
       34563.000        46.365100        3.1115500
       34563.500        46.434300        3.1302400
       34564.000        46.498000        3.1491800
       34564.500        46.556600        3.1663400
       34565.000        46.611900        3.1835000
       34565.500        46.662600        3.1985400
       34566.000        46.710800        3.2135800
       34566.500        46.756800        3.2279900
       34567.000        46.801100        3.2424100
       34568.000        46.883700        3.2696000
       34569.000        46.960900        3.2942500
       34570.000        47.033400        3.3173700
       34571.000        47.102100        3.3384600
       34572.000        47.166900        3.3578800
       34573.000        47.229500        3.3772900
       34574.000        47.289200        3.3936500
       34575.000        47.347200        3.4100200
       34577.000        47.456400        3.4376400
       34579.000        47.558800        3.4598500
       34581.000        47.654900        3.4778000
       34583.000        47.745300        3.4917800
       34585.000        47.830200        3.5017600
       34587.000        47.909100        3.5077000
       34588.500        47.965600        3.5113200
       34590.000        48.019300        3.5132800
       34593.000        48.118500        3.5132300
       34595.000        48.179500        3.5113800
       34598.000        48.263700        3.5060300
       34600.000        48.314800        3.5017900
       34603.000        48.385300        3.4944500
       34605.000        48.428700        3.4895600
       34608.000        48.488400        3.4827400
       34610.000        48.525400        3.4782000
       34613.000        48.577600        3.4721600
       34615.000        48.609500        3.4681400
       34620.000        48.684100        3.4624600
       34625.000        48.750600        3.4585000
       34630.000        48.812500        3.4571200
       34635.000        48.870800        3.4590900
       34640.000        48.926500        3.4610500
       34650.000        49.031900        3.4680900
       34660.000        49.131400        3.4739800
       34670.000        49.224600        3.4764300
       34677.000        49.285700        3.4759400
       34685.000        49.350800        3.4736600
       34693.000        49.410600        3.4700200
       34700.000        49.458400        3.4668400
       34715.000        49.553100        3.4639100
       34730.000        49.639600        3.4609800
       34740.000        49.693000        3.4590200
       34750.000        49.743100        3.4570700
       34760.000        49.790600        3.4564200
       34770.000        49.836400        3.4557700
       34785.000        49.901800        3.4547900
       34800.000        49.963900        3.4538200
       34810.000        50.003500        3.4522700
       34820.000        50.041200        3.4507300
       34835.000        50.095100        3.4484100
       34850.000        50.146100        3.4460900
       34865.000        50.194500        3.4437700
       34880.000        50.240600        3.4414500
       34900.000        50.298800        3.4383600
       34930.000        50.380100        3.4340300
       34950.000        50.430900        3.4311400
       34980.000        50.502700        3.4268100
       35000.000        50.548000        3.4239200
       35020.000        50.591400        3.4210400
       35050.000        50.653500        3.4167100
       35080.000        50.712200        3.4123800
       35100.000        50.749100        3.4094900
       35130.000        50.802000        3.4050200
       35150.000        50.835600        3.4020400
       35170.000        50.868100        3.3990600
       35200.000        50.914400        3.3945900
       35250.000        50.987300        3.3871500
       35300.000        51.055800        3.3797000
       35350.000        51.120000        3.3735900
       35400.000        51.180700        3.3674700
       35450.000        51.238500        3.3613600
       35500.000        51.294000        3.3552500
       35550.000        51.347000        3.3480500
       35600.000        51.397200        3.3408500
       35650.000        51.445600        3.3336600
       35700.000        51.491800        3.3264600
       35750.000        51.535800        3.3184000
       35800.000        51.578100        3.3103300
       35850.000        51.618700        3.3022600
       35900.000        51.657400        3.2942000
       35930.000        51.679900        3.2892500
       35970.000        51.709000        3.2826600
       36000.000        51.730200        3.2777100
       36030.000        51.750900        3.2727600
       36090.000        51.791000        3.2633100
       36160.000        51.835400        3.2522800
       36230.000        51.878000        3.2412600
       36300.000        51.918700        3.2302300
       36350.000        51.946600        3.2229700
       36400.000        51.973400        3.2157200
       36500.000        52.025000        3.2012000
       36570.000        52.059900        3.1918600
       36650.000        52.098400        3.1811900
       36720.000        52.130800        3.1718400
       36800.000        52.166800        3.1611700
       36900.000        52.210200        3.1483300
       37000.000        52.251800        3.1355000
       37150.000        52.311300        3.1167300
       37300.000        52.367900        3.0979600
       37400.000        52.404300        3.0854400
       37500.000        52.439500        3.0729300
       37650.000        52.489800        3.0537700
       37800.000        52.537900        3.0346100
       37900.000        52.568800        3.0218400
       38000.000        52.598600        3.0090700
       38150.000        52.641900        2.9894300
       38300.000        52.682700        2.9697900
       38400.000        52.708700        2.9567000
       38500.000        52.733900        2.9436100
       38650.000        52.770200        2.9245000
       38800.000        52.804900        2.9053800
       38900.000        52.827200        2.8926400
       39000.000        52.848900        2.8799000
       39150.000        52.880200        2.8616000
       39300.000        52.910000        2.8433100
       39400.000        52.929300        2.8311100
       39500.000        52.948100        2.8189100
       39650.000        52.975600        2.8014700
       39800.000        53.002100        2.7840300
       39900.000        53.019200        2.7724100
       40000.000        53.035900        2.7607800
       40200.000        53.068100        2.7388000
       40400.000        53.099200        2.7168300
       40600.000        53.128900        2.6948500
       40800.000        53.157400        2.6728700
       40950.000        53.178000        2.6571700
       41100.000        53.198000        2.6414600
       41300.000        53.223700        2.6205300
       41500.000        53.248300        2.5995900
       41700.000        53.272000        2.5798500
       41900.000        53.294900        2.5601200
       42100.000        53.317100        2.5403800
       42300.000        53.338500        2.5206500
       42450.000        53.354000        2.5065200
       42600.000        53.369200        2.4923900
       42800.000        53.388800        2.4735500
       43000.000        53.407800        2.4547100
       43200.000        53.426200        2.4367600
       43400.000        53.444000        2.4188100
       43600.000        53.461300        2.4008700
       43800.000        53.478100        2.3829200
       43950.000        53.490500        2.3698600
       44100.000        53.502700        2.3568100
       44300.000        53.518300        2.3394000
       44500.000        53.533400        2.3219900
       44700.000        53.548000        2.3051800
       44900.000        53.562200        2.2883600
       45100.000        53.576000        2.2715500
       45300.000        53.589400        2.2547400
       45450.000        53.599000        2.2426000
       45600.000        53.608500        2.2304500
       45800.000        53.620800        2.2142600
       46000.000        53.632800        2.1980700
       46150.000        53.641500        2.1863400
       46300.000        53.650000        2.1746100
       46500.000        53.661300        2.1589700
       46800.000        53.677400        2.1359200
       47000.000        53.687700        2.1205600
       47300.000        53.702600        2.0984700
       47500.000        53.712200        2.0837500
       47800.000        53.726100        2.0616600
       48000.000        53.735100        2.0469400
       48300.000        53.748100        2.0258500
       48500.000        53.756400        2.0118000
       48800.000        53.768400        1.9907100
       49000.000        53.776100        1.9766500
       49300.000        53.787200        1.9564200
       49500.000        53.794400        1.9429300
       49800.000        53.804900        1.9232500
       50000.000        53.811700        1.9101300
       50300.000        53.821400        1.8910600
       50500.000        53.827700        1.8783500
       50800.000        53.836800        1.8592800
       51000.000        53.842600        1.8465700
       51500.000        53.856500        1.8164400
       52000.000        53.869400        1.7863000
       52500.000        53.881600        1.7577000
       53000.000        53.893200        1.7291000
       53500.000        53.903900        1.7014400
       54000.000        53.913800        1.6737800
       54500.000        53.922800        1.6474900
       55000.000        53.931200        1.6212000
       55500.000        53.938900        1.5963600
       56000.000        53.946200        1.5715200
       56400.000        53.951700        1.5525100
       56800.000        53.956900        1.5334900
       57530.000        53.965600        1.5000300
       58000.000        53.970800        1.4791000
       58500.000        53.975900        1.4573300
       59000.000        53.980700        1.4363300
       59540.000        53.985500        1.4136400
       59800.000        53.987700        1.4030400
       60000.000        53.989300        1.3949800
       60800.000        53.995400        1.3634100
       61500.000        54.000200        1.3367000
       62300.000        54.005300        1.3070400
       63000.000        54.009100        1.2817500
       64000.000        54.013800        1.2469200
       65000.000        54.017800        1.2135600
       65900.000        54.020800        1.1843400
       66830.000        54.023100        1.1552800
       67400.000        54.024300        1.1380200
       68000.000        54.025400        1.1202800
       69000.000        54.026600        1.0915700
       70000.000        54.027400        1.0639900
       71000.000        54.027800        1.0374900
       72000.000        54.027700        1.0120100
       72800.000        54.027400       0.99232000
       73500.000        54.027100       0.97557800
       74200.000        54.026500       0.95927300
       74960.000        54.026000       0.94204700
       75500.000        54.025400       0.93003000
       76000.000        54.024900       0.91911100
       77110.000        54.023400       0.89557100
       78600.000        54.021000       0.86542100
       79300.000        54.019800       0.85179900
       80000.000        54.018600       0.83850900
       81500.000        54.015500       0.81076400
       83000.000        54.012400       0.78441900
       84000.000        54.010000       0.76758600
       85000.000        54.007600       0.75130700
       86500.000        54.003700       0.72779400
       88000.000        53.999900       0.70540200
       89000.000        53.997100       0.69106200
       90000.000        53.994400       0.67716800
       91500.000        53.990100       0.65710200
       93000.000        53.985900       0.63794300
       94000.000        53.983100       0.62564600
       95000.000        53.980200       0.61371300
       96500.000        53.975900       0.59637700
       98000.000        53.971700       0.57978700
       99000.000        53.968800       0.56912000
       99500.000        53.967400       0.56390000
       100000.00        53.966000       0.55875400
