;  Atomic scattering factors for Y.
;   
;  Concatenation of data from CXRO <http://www-cxro.lbl.gov>
;  and LLNL <http://www-phys.llnl.gov/V_Div/scattering/asf.html>
;  
;  E (eV) f1 f2
;---------------
       10.000000       -9999.0000        1.9177300
       10.161700       -9999.0000        1.9459300
       10.326100       -9999.0000        1.9745600
       10.493100       -9999.0000        2.0036000
       10.662800       -9999.0000        2.0330700
       10.835300       -9999.0000        2.0629800
       11.010600       -9999.0000        2.0899500
       11.188600       -9999.0000        2.0914700
       11.369600       -9999.0000        2.0929900
       11.553500       -9999.0000        2.0945200
       11.740400       -9999.0000        2.0960400
       11.930300       -9999.0000        2.0975700
       12.123200       -9999.0000        2.0991000
       12.319300       -9999.0000        2.0738000
       12.518600       -9999.0000        2.0426900
       12.721000       -9999.0000        2.0120400
       12.926800       -9999.0000        1.9818600
       13.135900       -9999.0000        1.9521200
       13.348300       -9999.0000        1.9228300
       13.564200       -9999.0000        1.8932600
       13.783600       -9999.0000        1.8286400
       14.006600       -9999.0000        1.7662200
       14.233100       -9999.0000        1.7059400
       14.463300       -9999.0000        1.6477100
       14.697300       -9999.0000        1.5894300
       14.935000       -9999.0000        1.5322500
       15.176500       -9999.0000        1.4771300
       15.422000       -9999.0000        1.4239900
       15.671400       -9999.0000        1.3727600
       15.924900       -9999.0000        1.3226500
       16.182500       -9999.0000        1.2737400
       16.444200       -9999.0000        1.2266500
       16.710200       -9999.0000        1.1812900
       16.980500       -9999.0000        1.1376100
       17.255100       -9999.0000        1.1015200
       17.534200       -9999.0000        1.0704400
       17.817800       -9999.0000        1.0402400
       18.106000       -9999.0000        1.0108900
       18.398900       -9999.0000       0.98236800
       18.696400       -9999.0000       0.95465300
       18.998800       -9999.0000       0.94254300
       19.306100       -9999.0000       0.93727200
       19.618400       -9999.0000       0.93203100
       19.935700       -9999.0000       0.92682000
       20.258200       -9999.0000       0.92163700
       20.585800       -9999.0000       0.92210300
       20.918800       -9999.0000       0.93642800
       21.257100       -9999.0000       0.95097500
       21.600900       -9999.0000       0.96574800
       21.950300       -9999.0000       0.98773000
       22.305300       -9999.0000        1.0259800
       22.666100       -9999.0000        1.0657100
       23.032700       -9999.0000        1.1069800
       23.405300       -9999.0000        1.1512700
       23.783800       -9999.0000        1.2325900
       24.168500       -9999.0000        1.3196600
       24.559400       -9999.0000        1.4128800
       24.956600       -9999.0000        1.5126800
       25.360300       -9999.0000        1.6575400
       25.770500       -9999.0000        1.9327900
       26.187300       -9999.0000        2.2537700
       26.610900       -9999.0000        2.6280400
       27.041300       -9999.0000        3.3006000
       27.478600       -9999.0000        4.8312500
       27.923100       -9999.0000        7.0717500
       28.374700       -9999.0000        10.351300
       28.833700       -9999.0000        14.312400
       29.300000       -5.8113100        15.294100
       29.773900       -4.3353700        16.343200
       30.255500       -2.9151100        17.464200
       30.744900       -1.0922100        18.205400
       31.242100       0.36282300        18.580400
       31.747500        1.7332800        18.963100
       32.260900        3.1901100        19.353800
       32.782700        4.7519300        19.368900
       33.313000        6.0921700        19.258500
       33.851800        7.4215200        19.148700
       34.399300        8.9401200        18.975200
       34.955700        10.263000        18.165400
       35.521100        11.240200        17.390200
       36.095600        12.039800        16.648000
       36.679400        12.716700        15.937600
       37.272700        13.300200        15.257400
       37.875500        13.809500        14.606300
       38.488200        14.259000        13.983000
       39.110700        14.660500        13.386300
       39.743200        15.024500        12.815000
       40.386100        15.362000        12.268100
       41.039300        15.686700        11.744600
       41.703100        16.025900        11.243400
       42.377600        16.460400        10.703900
       43.063000        16.765600        9.9231700
       43.759500        16.914200        9.1994400
       44.467300        16.973100        8.5284800
       45.186500        16.976400        7.9064600
       45.917400        16.938300        7.3298100
       46.660000        16.868400        6.7952100
       47.414700        16.773800        6.2996100
       48.181600        16.659800        5.8401400
       48.960900        16.530900        5.4142100
       49.752800        16.390400        5.0193100
       50.557600        16.241300        4.6532400
       51.375300        16.086300        4.3138500
       52.206200        15.928700        3.9992300
       53.050600        15.774900        3.7047400
       53.908700        15.611500        3.4126300
       54.780600        15.436600        3.1435600
       55.666700        15.255500        2.8956900
       56.567000        15.071200        2.6673800
       57.482000        14.885000        2.4570600
       58.411700        14.697600        2.2633300
       59.356400        14.509000        2.0848800
       60.316500        14.318700        1.9204900
       61.292100        14.124000        1.7690600
       62.283400        13.913800        1.6416200
       63.290800        13.725400        1.5533600
       64.314500        13.554200        1.4698300
       65.354700        13.393000        1.3908000
       66.411800        13.238100        1.3160200
       67.485900        13.087400        1.2452500
       68.577500        12.939500        1.1783000
       69.686700        12.792800        1.1149400
       70.813800        12.643300        1.0549900
       71.959100        12.490200        1.0114800
       73.123000        12.348300       0.97632900
       74.305700        12.212400       0.94239700
       75.507600        12.076400       0.90964700
       76.728900        11.930900       0.88153700
       77.969900        11.794600       0.87753900
       79.231000        11.670600       0.87356000
       80.512500        11.552200       0.86959800
       81.814700        11.437000       0.86565500
       83.138000        11.323100       0.86173000
       84.482700        11.206900       0.85782200
       85.849100        11.086400       0.86424600
       87.237700        10.975500       0.87822900
       88.648700        10.869800       0.89243900
       90.082500        10.767100       0.90687900
       91.539500        10.666400       0.92155200
       93.020100        10.566700       0.93646300
       94.524600        10.466800       0.95161500
       96.053500        10.365100       0.97010600
       97.607100        10.266500       0.99147800
       99.185800        10.169800        1.0133200
       100.79000        10.073900        1.0356500
       102.42000        9.9789900        1.0584600
       104.07700        9.8863500        1.0810800
       105.76000        9.7916000        1.0981700
       107.47100        9.6932000        1.1155300
       109.20900        9.5914800        1.1331600
       110.97500        9.4864600        1.1510700
       112.77000        9.3772400        1.1695000
       114.59400        9.2646200        1.1895700
       116.44800        9.1482900        1.2099800
       118.33100        9.0273200        1.2307400
       120.24500        8.9008400        1.2518600
       122.19000        8.7675000        1.2733400
       124.16600        8.6250200        1.2975600
       126.17500        8.4768300        1.3247800
       128.21500        8.3206500        1.3525800
       130.28900        8.1517800        1.3815300
       132.39700        7.9731100        1.4193500
       134.53800        7.7832700        1.4582000
       136.71400        7.5719100        1.4981200
       138.92500        7.3425500        1.5620700
       141.17200        7.1043200        1.6352500
       143.45600        6.8308100        1.7246900
       145.77600        6.5535900        1.8665700
       148.13400        6.3237100        2.0542000
       150.53000        6.1111400        2.1963600
       152.96400        5.8702400        2.2951500
       155.43900        5.5484500        2.3890700
       157.95300        5.1602800        2.5582600
       160.50700        4.7582900        2.8021200
       163.10300        4.3451500        3.0870200
       165.74200        3.8674000        3.4720100
       168.42200        3.4530800        3.9883300
       171.14600        3.1370200        4.5735300
       173.91500        2.8599500        5.1645900
       176.72700        2.6227300        5.8320200
       179.58600        2.5052300        6.5857200
       182.49100        2.4674800        7.2427300
       185.44200        2.4551100        7.9458500
       188.44200        2.5354400        8.7172400
       191.48900        2.8236800        9.4180500
       194.58700        3.0737700        9.9740300
       197.73400        3.3165800        10.511900
       200.93200        3.5903100        11.070200
       204.18200        4.0060300        11.565100
       207.48500        4.3295100        11.903700
       210.84000        4.5997500        12.252100
       214.25100        4.8518500        12.610800
       217.71600        5.1008300        12.979900
       221.23700        5.3583500        13.359900
       224.81600        5.6486500        13.748400
       228.45200        5.9402100        14.086100
       232.14700        6.2255600        14.432200
       235.90200        6.5171200        14.786700
       239.71700        6.8382900        15.149900
       243.59500        7.1904100        15.462500
       247.53500        7.5198500        15.751000
       251.53800        7.8336400        16.044900
       255.60700        8.1497600        16.344300
       259.74100        8.4808100        16.648500
       263.94200        8.8149900        16.937200
       268.21100        9.1497100        17.230900
       272.54900        9.4926000        17.529700
       276.95700        9.8480300        17.833700
       281.43700        10.221200        18.142900
       285.98900        10.638300        18.454700
       290.61500        11.061400        18.718200
       295.31500        11.481200        18.985400
       300.09200        11.915100        19.256500
       304.94500        12.378500        19.531400
       309.87800        12.908200        19.774500
       314.89000        13.405200        19.943600
       319.98300        13.883500        20.114000
       325.15800        14.360500        20.285900
       330.41800        14.844100        20.459300
       335.76200        15.340900        20.634200
       341.19200        15.858100        20.810600
       346.71100        16.453500        20.966700
       352.31900        17.026200        21.038400
       358.01700        17.570200        21.110400
       363.80800        18.118200        21.182700
       369.69200        18.680300        21.255100
       375.67200        19.267300        21.327900
       381.74800        19.980800        21.365800
       387.92200        20.642600        21.247500
       394.19700        21.237300        21.129900
       400.57300        21.824500        21.013000
       407.05200        22.471600        20.896700
       413.63500        23.140300        20.634100
       420.32600        23.693200        20.288200
       427.12400        24.171200        19.948100
       434.03200        24.601200        19.613700
       441.05200        24.993200        19.284900
       448.18600        25.352800        18.961700
       455.43500        25.682900        18.643800
       462.80200        25.969000        18.331300
       470.28700        26.240700        18.064700
       477.89400        26.515000        17.805500
       485.62300        26.783000        17.550000
       493.47800        27.043100        17.298200
       501.45900        27.295000        17.050000
       509.57000        27.539100        16.805300
       517.81200        27.776000        16.564200
       526.18700        28.006700        16.326500
       534.69800        28.235000        16.092300
       543.34600        28.454400        15.850100
       552.13400        28.663500        15.611600
       561.06500        28.863900        15.376600
       570.13900        29.057300        15.145300
       579.36100        29.244500        14.917400
       588.73200        29.426200        14.692900
       598.25400        29.603200        14.471800
       607.93000        29.776200        14.254000
       617.76300        29.946200        14.039500
       627.75500        30.114300        13.828200
       637.90800        30.282300        13.620200
       648.22600        30.451200        13.415200
       658.71100        30.655500        13.203600
       669.36500        30.835600        12.942600
       680.19100        30.981000        12.686700
       691.19300        31.112100        12.435900
       702.37200        31.231600        12.190000
       713.73300        31.341300        11.949000
       725.27700        31.442500        11.712800
       737.00800        31.536100        11.481200
       748.92800        31.622800        11.254200
       761.04200        31.703200        11.031700
       773.35100        31.777800        10.813600
       785.85900        31.847000        10.600000
       798.57000        31.911500        10.390700
       811.48600        31.971400        10.185600
       824.61100        32.027300        9.9845100
       837.94900        32.079500        9.7873900
       851.50200        32.128200        9.5941700
       865.27400        32.174000        9.4047600
       879.26900        32.217600        9.2190900
       893.49100        32.259400        9.0370900
       907.94300        32.308000        8.8586800
       922.62800        32.353900        8.6662600
       937.55100        32.385600        8.4716500
       952.71500        32.407900        8.2814100
       968.12400        32.423300        8.0954400
       983.78300        32.432800        7.9136500
       999.69500        32.436900        7.7359300
       1015.8600        32.436000        7.5622200
       1032.2900        32.430200        7.3924000
       1048.9900        32.419300        7.2217900
       1065.9600        32.401400        7.0658700
       1083.2000        32.381500        6.9133000
       1100.7200        32.360800        6.7640300
       1118.5200        32.337500        6.6179900
       1136.6100        32.311300        6.4751000
       1155.0000        32.282200        6.3352900
       1173.6800        32.249900        6.1985000
       1192.6600        32.214600        6.0646700
       1211.9500        32.175900        5.9337200
       1231.5500        32.134000        5.8056100
       1251.4700        32.088500        5.6802500
       1271.7200        32.039500        5.5576100
       1292.2900        31.986700        5.4376100
       1313.1900        31.930000        5.3202100
       1334.4300        31.869200        5.2053400
       1356.0100        31.804100        5.0929500
       1377.9400        31.734200        4.9829900
       1400.2300        31.659400        4.8753900
       1422.8800        31.579200        4.7701300
       1445.8900        31.493100        4.6671300
       1469.2800        31.400400        4.5663600
       1493.0400        31.299800        4.4677700
       1517.1900        31.189600        4.3744400
       1541.7300        31.074000        4.2873200
       1566.6700        30.953100        4.2019300
       1592.0100        30.823800        4.1182400
       1617.7600        30.684800        4.0362200
       1643.9200        30.534500        3.9558300
       1670.5100        30.371100        3.8770400
       1697.5300        30.192400        3.7998200
       1724.9900        29.995800        3.7241400
       1752.8900        29.778100        3.6499700
       1781.2400        29.535000        3.5772700
       1810.0500        29.260800        3.5060200
       1839.3200        28.952300        3.4361900
       1869.0700        28.594200        3.3590100
       1899.3000        28.162300        3.2780100
       1930.0200        27.632700        3.1989600
       1961.2400        26.963400        3.1218100
       1992.9600        26.069800        3.0465300
       2025.2000        24.749200        2.9730600
       2057.9500        22.209900        2.9013700
       2079.9000        7.9803200        2.8549200
       2080.1000        7.9838200        11.123900
       2091.2400        20.306100        10.994100
       2125.0600        23.249300        10.613000
       2155.4000        18.101300        10.287400
       2155.6000        18.112700        14.028900
       2159.4300        22.351900        14.006900
       2194.3600        25.970000        13.809800
       2229.8500        27.462900        13.615600
       2265.9200        28.521500        13.424000
       2302.5700        29.314400        13.147600
       2339.8100        29.763500        12.823300
       2372.4000        27.708600        12.550100
       2372.6000        27.716900        14.114300
       2377.6600        29.507800        14.078400
       2416.1100        31.085000        13.810400
       2455.1900        31.905500        13.547500
       2494.9000        32.555900        13.289600
       2535.2600        33.112600        13.036700
       2576.2600        33.605400        12.788500
       2617.9300        34.050600        12.545100
       2660.2700        34.459000        12.306300
       2703.3000        34.838600        12.072000
       2747.0300        35.195200        11.842200
       2791.4600        35.553900        11.616800
       2836.6100        35.904900        11.358800
       2882.4900        36.208500        11.067000
       2929.1100        36.470700        10.782700
       2976.4800        36.704600        10.505800
       3024.6300        36.915500        10.235900
       3073.5500        37.106600        9.9729700
       3123.2600        37.280300        9.7167800
       3173.7800        37.438400        9.4671800
       3225.1100        37.582400        9.2240000
       3277.2700        37.713000        8.9870700
       3330.2800        37.830000        8.7561900
       3384.1500        37.936200        8.5369000
       3438.8800        38.035800        8.3251800
       3494.5000        38.129400        8.1186900
       3551.0200        38.216300        7.9173600
       3608.4600        38.296900        7.7209900
       3666.8200        38.371800        7.5295000
       3726.1300        38.441600        7.3427600
       3786.4000        38.508100        7.1606400
       3847.6400        38.571200        6.9778100
       3909.8700        38.626100        6.7950900
       3973.1100        38.671700        6.6171600
       4037.3800        38.710600        6.4438800
       4102.6800        38.742500        6.2751700
       4169.0300        38.763500        6.1108600
       4236.4600        38.781700        5.9669200
       4304.9800        38.804300        5.8263800
       4374.6200        38.826900        5.6891500
       4445.3700        38.848700        5.5551500
       4517.2700        38.869500        5.4242900
       4590.3300        38.889200        5.2965300
       4664.5800        38.908000        5.1717800
       4740.0300        38.926100        5.0499600
       4816.6900        38.944200        4.9310200
       4894.6000        38.964300        4.8148600
       4973.7700        38.985400        4.6932800
       5054.2100        39.000600        4.5700300
       5135.9600        39.009600        4.4500100
       5219.0300        39.015700        4.3331300
       5303.4400        39.019200        4.2193400
       5389.2200        39.020500        4.1085300
       5476.3900        39.019900        4.0006200
       5564.9700        39.017500        3.8955600
       5654.9800        39.013600        3.7932500
       5746.4400        39.008200        3.6936300
       5839.3900        39.001600        3.5966300
       5933.8300        38.993800        3.5021700
       6029.8100        38.984900        3.4102000
       6127.3300        38.975100        3.3206400
       6226.4400        38.964300        3.2334300
       6327.1500        38.952800        3.1485200
       6429.4800        38.940500        3.0658300
       6533.4800        38.927700        2.9853100
       6639.1500        38.914300        2.9065100
       6746.5400        38.900000        2.8297800
       6855.6500        38.885100        2.7550900
       6966.5400        38.869700        2.6823600
       7079.2200        38.853900        2.6115500
       7193.7200        38.837600        2.5426100
       7310.0700        38.821000        2.4754900
       7428.3100        38.804100        2.4101500
       7548.4500        38.787100        2.3465300
       7670.5400        38.769900        2.2845900
       7794.6100        38.752900        2.2242800
       7920.6800        38.736100        2.1655700
       8048.7900        38.721500        2.1084100
       8178.9800        38.708100        2.0488400
       8311.2600        38.691200        1.9868900
       8445.6900        38.671400        1.9268100
       8582.2900        38.649900        1.8685400
       8721.1100        38.627100        1.8120400
       8862.1600        38.603100        1.7572500
       9005.5000        38.578300        1.7041200
       9151.1600        38.552500        1.6525800
       9299.1700        38.525800        1.6026200
       9449.5800        38.498300        1.5541500
       9602.4200        38.469900        1.5071600
       9757.7300        38.439800        1.4615900
       9915.5500        38.408500        1.4189500
       10075.900        38.377800        1.3792900
       10238.900        38.347600        1.3407300
       10404.500        38.317300        1.3032400
       10572.800        38.286700        1.2667800
       10743.800        38.255800        1.2313300
       10917.600        38.224300        1.1968700
       11094.200        38.192300        1.1633600
       11273.600        38.159600        1.1307900
       11455.900        38.126000        1.0991200
       11641.200        38.091600        1.0683300
       11829.500        38.056200        1.0383900
       12020.800        38.019600        1.0092900
       12215.300        37.981800       0.98100400
       12412.800        37.942400       0.95350400
       12613.600        37.901400       0.92677100
       12817.600        37.858500       0.90078400
       13025.000        37.813400       0.87552100
       13235.600        37.765700       0.85096500
       13449.700        37.715100       0.82709400
       13667.200        37.661100       0.80389000
       13888.300        37.603100       0.78133400
       14112.900        37.540200       0.75940800
       14341.200        37.471600       0.73809600
       14573.100        37.395900       0.71737800
       14808.900        37.311300       0.69724100
       15048.400        37.215600       0.67766600
       15291.800        37.105300       0.65863900
       15539.100        36.975400       0.64014400
       15790.400        36.817600       0.62216500
       16045.800        36.618000       0.60469000
       16305.400        36.348600       0.58770300
       16569.100        35.942100       0.57119000
       16837.100        35.142300       0.55513900
       17038.300        27.482200       0.54354700
       17038.500        27.482400        3.7338400
       17109.400        34.183900        3.7106200
       17386.100        35.866400        3.6222800
       17667.400        36.515000        3.5353600
       17953.100        36.930400        3.4498900
       18243.500        37.237200        3.3658800
       18538.600        37.480100        3.2833400
       18838.400        37.680300        3.2022800
       19143.100        37.849900        3.1227100
       19452.700        37.996300        3.0446400
       19767.400        38.124300        2.9680500
       20087.100        38.237400        2.8929600
       20412.000        38.338100        2.8193600
       20742.100        38.428400        2.7472400
       21077.600        38.509600        2.6765900
       21418.500        38.583100        2.6074100
       21765.000        38.649700        2.5396900
       22117.000        38.710200        2.4734100
       22474.700        38.765300        2.4085700
       22838.200        38.815500        2.3451400
       23207.600        38.861400        2.2831200
       23583.000        38.903200        2.2224800
       23964.400        38.941500        2.1632100
       24352.000        38.976500        2.1053000
       24745.900        39.008400        2.0487200
       25146.200        39.037500        1.9934500
       25552.900        39.064100        1.9394800
       25966.200        39.088300        1.8867900
       26386.100        39.110400        1.8353600
       26812.900        39.130400        1.7851600
       27246.600        39.148600        1.7361700
       27687.300        39.165000        1.6883900
       28135.100        39.179800        1.6417700
       28590.200        39.193100        1.5963100
       29052.600        39.205000        1.5519700
       29522.500        39.215600        1.5087500
       30000.000        39.225000        1.4666200
       30400.000        39.212900        1.4038400
       30800.000        39.218500        1.3723000
       31200.000        39.223600        1.3418700
       31500.000        39.227200        1.3197400
       31900.000        39.231400        1.2907700
       32300.000        39.235000        1.2627900
       32600.000        39.237300        1.2424300
       33000.000        39.240200        1.2160600
       33400.000        39.242700        1.1902200
       33800.000        39.244700        1.1652300
       34100.000        39.245700        1.1469800
       34500.000        39.247200        1.1232300
       34900.000        39.247900        1.1002300
       35300.000        39.248700        1.0779200
       35700.000        39.248900        1.0562800
       36030.000        39.249000        1.0389400
       36500.000        39.248800        1.0149900
       37000.000        39.248300       0.99044800
       37500.000        39.247300       0.96681300
       38000.000        39.246400       0.94404400
       38500.000        39.245000       0.92205400
       39000.000        39.243700       0.90084900
       39500.000        39.242000       0.88039300
       40000.000        39.240400       0.86065000
       40800.000        39.237100       0.83008900
       41500.000        39.234300       0.80470300
       42300.000        39.230500       0.77713400
       43000.000        39.227200       0.75419200
       43800.000        39.223000       0.72898500
       44500.000        39.219300       0.70797900
       45300.000        39.214800       0.68507500
       46000.000        39.210900       0.66593000
       46500.000        39.207900       0.65275500
       47000.000        39.205000       0.63997800
       47500.000        39.202100       0.62758200
       48000.000        39.199200       0.61555200
       48500.000        39.196200       0.60383700
       49000.000        39.193300       0.59246100
       49500.000        39.190400       0.58141100
       50000.000        39.187400       0.57067600
       50500.000        39.184600       0.56015700
       51000.000        39.181700       0.54993200
       51500.000        39.178800       0.53999100
       52000.000        39.176000       0.53032400
       53000.000        39.170200       0.51176800
       54000.000        39.164500       0.49408700
       55000.000        39.158700       0.47732500
       56000.000        39.153000       0.46136600
       56800.000        39.148400       0.44917900
       57530.000        39.144200       0.43848300
       58000.000        39.141600       0.43180100
       58500.000        39.138900       0.42486200
       59540.000        39.133300       0.41096500
       59800.000        39.131900       0.40760000
       60000.000        39.130900       0.40503900
       60800.000        39.126800       0.39496000
       61500.000        39.123200       0.38645100
       62300.000        39.119100       0.37706500
       63000.000        39.115500       0.36913400
       64000.000        39.110700       0.35823800
       65000.000        39.106000       0.34782500
       65900.000        39.101700       0.33878800
       66830.000        39.097200       0.32982000
       67400.000        39.094600       0.32450100
       68000.000        39.091900       0.31904100
       69000.000        39.087500       0.31024800
       70000.000        39.083100       0.30181800
       71000.000        39.078900       0.29369400
       72000.000        39.074700       0.28589800
       72800.000        39.071500       0.27988500
       73500.000        39.068700       0.27478000
       74200.000        39.065900       0.26981500
       74960.000        39.062900       0.26457800
       75500.000        39.060800       0.26093200
       76000.000        39.059000       0.25762300
       77110.000        39.054800       0.25050100
       78600.000        39.049400       0.24140100
       79300.000        39.047000       0.23729800
       80000.000        39.044500       0.23330000
       81500.000        39.039500       0.22502900
       83000.000        39.034500       0.21719400
       84000.000        39.031300       0.21219800
       85000.000        39.028200       0.20737400
       86500.000        39.023700       0.20044400
       88000.000        39.019200       0.19385900
       89000.000        39.016300       0.18964900
       90000.000        39.013500       0.18557600
       91500.000        39.009500       0.17968000
       93000.000        39.005500       0.17406300
       94000.000        39.002900       0.17046400
       95000.000        39.000400       0.16697700
       96500.000        38.996700       0.16193900
       98000.000        38.993100       0.15712700
       99000.000        38.990800       0.15403800
       99500.000        38.989700       0.15252800
       100000.00        38.988500       0.15104000
