;  Atomic scattering factors for Yb.
;   
;  Concatenation of data from CXRO <http://www-cxro.lbl.gov>
;  and LLNL <http://www-phys.llnl.gov/V_Div/scattering/asf.html>
;  
;  E (eV) f1 f2
;---------------
       10.000000       -9999.0000       0.21734200
       10.161700       -9999.0000       0.21863600
       10.326100       -9999.0000       0.21993700
       10.493100       -9999.0000       0.22124600
       10.662800       -9999.0000       0.22256300
       10.835300       -9999.0000       0.22388700
       11.010600       -9999.0000       0.22522000
       11.188600       -9999.0000       0.22656000
       11.369600       -9999.0000       0.22886300
       11.553500       -9999.0000       0.23378500
       11.740400       -9999.0000       0.23881300
       11.930300       -9999.0000       0.24394900
       12.123200       -9999.0000       0.24919500
       12.319300       -9999.0000       0.25592400
       12.518600       -9999.0000       0.26422200
       12.721000       -9999.0000       0.27279000
       12.926800       -9999.0000       0.28163600
       13.135900       -9999.0000       0.29076800
       13.348300       -9999.0000       0.30019600
       13.564200       -9999.0000       0.30993000
       13.783600       -9999.0000       0.31998000
       14.006600       -9999.0000       0.33035600
       14.233100       -9999.0000       0.34040400
       14.463300       -9999.0000       0.35042800
       14.697300       -9999.0000       0.36074700
       14.935000       -9999.0000       0.37136900
       15.176500       -9999.0000       0.38230500
       15.422000       -9999.0000       0.39356300
       15.671400       -9999.0000       0.40509200
       15.924900       -9999.0000       0.41630400
       16.182500       -9999.0000       0.42782500
       16.444200       -9999.0000       0.43966600
       16.710200       -9999.0000       0.45183400
       16.980500       -9999.0000       0.46434000
       17.255100       -9999.0000       0.47719000
       17.534200       -9999.0000       0.49064100
       17.817800       -9999.0000       0.50460100
       18.106000       -9999.0000       0.51895800
       18.398900       -9999.0000       0.53372300
       18.696400       -9999.0000       0.54890900
       18.998800       -9999.0000       0.56452700
       19.306100       -9999.0000       0.58020600
       19.618400       -9999.0000       0.59206700
       19.935700       -9999.0000       0.60417000
       20.258200       -9999.0000       0.61652100
       20.585800       -9999.0000       0.62912400
       20.918800       -9999.0000       0.64198500
       21.257100       -9999.0000       0.65510900
       21.600900       -9999.0000       0.67188900
       21.950300       -9999.0000       0.69105500
       22.305300       -9999.0000       0.71076800
       22.666100       -9999.0000       0.73112200
       23.032700       -9999.0000       0.75381900
       23.405300       -9999.0000       0.77722000
       23.783800       -9999.0000       0.80134800
       24.168500       -9999.0000       0.85873300
       24.559400       -9999.0000       0.94269800
       24.956600       -9999.0000        1.0494100
       25.360300       -9999.0000        1.1942100
       25.770500       -9999.0000        1.3589900
       26.187300       -9999.0000        1.8735300
       26.610900       -9999.0000        2.2624500
       27.041300       -9999.0000        3.3228000
       27.478600       -9999.0000        4.8821600
       27.923100       -9999.0000        6.6042000
       28.374700       -9999.0000        8.2135700
       28.833700       -9999.0000        9.7977600
       29.300000       -7.2176500        10.930000
       29.773900       -6.3158100        11.476300
       30.255500       -5.6249600        12.045900
       30.744900       -4.9126200        12.637900
       31.242100       -4.1736600        13.129100
       31.747500       -3.4090800        13.632100
       32.260900       -2.5755400        14.010600
       32.782700       -1.6887200        14.337100
       33.313000      -0.75372900        14.448000
       33.851800      0.055314500        14.416000
       34.399300       0.80343700        14.326400
       34.955700        1.4079800        14.097900
       35.521100        1.8863800        13.980100
       36.095600        2.4003600        13.872400
       36.679400        2.8956100        13.740100
       37.272700        3.3694900        13.590800
       37.875500        3.8479600        13.436000
       38.488200        4.2950900        13.124400
       39.110700        4.6216100        12.820000
       39.743200        4.8390900        12.522600
       40.386100        4.9917800        12.327900
       41.039300        5.1916800        12.178400
       41.703100        5.4015300        12.030700
       42.377600        5.6213200        11.855600
       43.063000        5.8001600        11.636300
       43.759500        5.9035000        11.436400
       44.467300        5.9868800        11.296200
       45.186500        6.0804600        11.157600
       45.917400        6.1451200        11.020800
       46.660000        6.1805000        10.940700
       47.414700        6.2431200        10.885000
       48.181600        6.3177900        10.829500
       48.960900        6.3908300        10.774300
       49.752800        6.4503200        10.720800
       50.557600        6.5075500        10.702400
       51.375300        6.5857700        10.684000
       52.206200        6.6676600        10.665600
       53.050600        6.7570600        10.647300
       53.908700        6.8495900        10.617200
       54.780600        6.9287300        10.579000
       55.666700        6.9969200        10.540900
       56.567000        7.0389300        10.503000
       57.482000        7.0613800        10.500700
       58.411700        7.1113900        10.532300
       59.356400        7.1815200        10.563900
       60.316500        7.2775500        10.595600
       61.292100        7.3862800        10.586500
       62.283400        7.4632100        10.570900
       63.290800        7.5299000        10.555300
       64.314500        7.5834000        10.547300
       65.354700        7.6354400        10.551500
       66.411800        7.6906300        10.555800
       67.485900        7.7419200        10.557100
       68.577500        7.7803800        10.551500
       69.686700        7.7951400        10.545900
       70.813800        7.7434500        10.541000
       71.959100        7.6859600        10.723600
       73.123000        7.7620200        10.909400
       74.305700        7.9233200        11.098300
       75.507600        8.1913900        11.144600
       76.728900        8.3701500        11.089000
       77.969900        8.4832700        11.033600
       79.231000        8.5657100        10.978600
       80.512500        8.6204400        10.923800
       81.814700        8.6423300        10.869300
       83.138000        8.6284100        10.854100
       84.482700        8.6235800        10.847000
       85.849100        8.5925300        10.839900
       87.237700        8.5199600        10.832800
       88.648700        8.4251600        10.960600
       90.082500        8.3951900        11.095200
       91.539500        8.3892200        11.231500
       93.020100        8.3984200        11.369500
       94.524600        8.4187900        11.509200
       96.053500        8.4481300        11.650500
       97.607100        8.4849700        11.793600
       99.185800        8.5284200        11.938500
       100.79000        8.5776900        12.085200
       102.42000        8.6323400        12.233600
       104.07700        8.6919200        12.383900
       105.76000        8.7561700        12.536000
       107.47100        8.8248200        12.690000
       109.20900        8.8977200        12.845900
       110.97500        8.9746800        13.003700
       112.77000        9.0556200        13.163400
       114.59400        9.1402900        13.325100
       116.44800        9.2285500        13.488800
       118.33100        9.3205000        13.655700
       120.24500        9.4170500        13.824800
       122.19000        9.5178000        13.996000
       124.16600        9.6227500        14.169300
       126.17500        9.7318700        14.344800
       128.21500        9.8452700        14.522400
       130.28900        9.9629800        14.702200
       132.39700        10.085200        14.884200
       134.53800        10.211800        15.068500
       136.71400        10.343300        15.255100
       138.92500        10.479600        15.444000
       141.17200        10.621000        15.635300
       143.45600        10.767700        15.828900
       145.77600        10.920100        16.024800
       148.13400        11.078400        16.223300
       150.53000        11.243300        16.424200
       152.96400        11.415000        16.627500
       155.43900        11.594500        16.833400
       157.95300        11.782700        17.041900
       160.50700        11.981200        17.252900
       163.10300        12.193500        17.466500
       165.74200        12.427000        17.682800
       168.42200        12.688200        17.860200
       171.14600        12.924900        18.022700
       173.91500        13.155800        18.186700
       176.72700        13.385500        18.352200
       179.58600        13.616000        18.519200
       182.49100        13.848800        18.687700
       185.44200        14.084800        18.857700
       188.44200        14.324600        19.029300
       191.48900        14.569100        19.202500
       194.58700        14.819000        19.377200
       197.73400        15.074900        19.553500
       200.93200        15.337900        19.731400
       204.18200        15.608900        19.911000
       207.48500        15.889200        20.092100
       210.84000        16.180300        20.275000
       214.25100        16.484600        20.459500
       217.71600        16.805400        20.645600
       221.23700        17.147800        20.833500
       224.81600        17.543500        21.023000
       228.45200        18.021600        21.122900
       232.14700        18.407300        21.151900
       235.90200        18.758900        21.181000
       239.71700        19.093500        21.210100
       243.59500        19.415800        21.239300
       247.53500        19.728700        21.268500
       251.53800        20.034000        21.297800
       255.60700        20.332800        21.327000
       259.74100        20.625600        21.356400
       263.94200        20.911900        21.385700
       268.21100        21.189800        21.415100
       272.54900        21.459700        21.459800
       276.95700        21.738100        21.509700
       281.43700        22.019600        21.559700
       285.98900        22.303100        21.609900
       290.61500        22.588100        21.660100
       295.31500        22.874800        21.710500
       300.09200        23.163200        21.761000
       304.94500        23.453600        21.811600
       309.87800        23.746200        21.862300
       314.89000        24.041500        21.913100
       319.98300        24.339800        21.964100
       325.15800        24.641700        22.015100
       330.41800        24.948000        22.066300
       335.76200        25.259400        22.117600
       341.19200        25.577500        22.169100
       346.71100        25.904400        22.220600
       352.31900        26.247200        22.272300
       358.01700        26.620400        22.324100
       363.80800        26.999200        22.300600
       369.69200        27.345500        22.271700
       375.67200        27.678100        22.243000
       381.74800        28.002700        22.214200
       387.92200        28.322100        22.185500
       394.19700        28.637900        22.156800
       400.57300        28.951100        22.128100
       407.05200        29.262900        22.099500
       413.63500        29.574000        22.070900
       420.32600        29.885400        22.042400
       427.12400        30.198200        22.013900
       434.03200        30.513600        21.985400
       441.05200        30.833900        21.957000
       448.18600        31.163600        21.928600
       455.43500        31.517700        21.891900
       462.80200        31.861600        21.804700
       470.28700        32.184300        21.717800
       477.89400        32.495700        21.631300
       485.62300        32.800700        21.545100
       493.47800        33.101300        21.459200
       501.45900        33.398700        21.373700
       509.57000        33.694100        21.288600
       517.81200        33.988500        21.203700
       526.18700        34.283100        21.119300
       534.69800        34.579200        21.035100
       543.34600        34.878500        20.951300
       552.13400        35.183800        20.867800
       561.06500        35.500300        20.784700
       570.13900        35.846200        20.701900
       579.36100        36.217400        20.544400
       588.73200        36.540400        20.359400
       598.25400        36.834100        20.175000
       607.93000        37.114200        19.992100
       617.76300        37.385900        19.811100
       627.75500        37.657800        19.630300
       637.90800        37.926500        19.433800
       648.22600        38.190100        19.214200
       658.71100        38.416700        18.980800
       669.36500        38.611600        18.749900
       680.19100        38.771500        18.553600
       691.19300        38.950500        18.383600
       702.37200        39.150200        18.219700
       713.73300        39.365800        18.027800
       725.27700        39.555500        17.817700
       737.00800        39.730500        17.610100
       748.92800        39.896400        17.404700
       761.04200        40.056800        17.201000
       773.35100        40.213400        16.995400
       785.85900        40.368700        16.778400
       798.57000        40.502700        16.552900
       811.48600        40.621800        16.329900
       824.61100        40.729500        16.109900
       837.94900        40.828100        15.892600
       851.50200        40.917600        15.674500
       865.27400        40.998600        15.455400
       879.26900        41.065500        15.235800
       893.49100        41.120800        15.018900
       907.94300        41.166000        14.804900
       922.62800        41.203800        14.593900
       937.55100        41.230800        14.376800
       952.71500        41.244900        14.160500
       968.12400        41.244100        13.945500
       983.78300        41.230700        13.733200
       999.69500        41.206700        13.522400
       1015.8600        41.172700        13.312900
       1032.2900        41.121900        13.091700
       1048.9900        41.051400        12.871000
       1065.9600        40.957200        12.650800
       1083.2000        40.841200        12.434100
       1100.7200        40.703600        12.220800
       1118.5200        40.543000        12.010800
       1136.6100        40.358200        11.804200
       1155.0000        40.147600        11.601000
       1173.6800        39.908600        11.401100
       1192.6600        39.638200        11.203900
       1211.9500        39.332800        11.010100
       1231.5500        38.988000        10.819500
       1251.4700        38.598400        10.632100
       1271.7200        38.157000        10.448200
       1292.2900        37.655700        10.267800
       1313.1900        37.082700        10.090200
       1334.4300        36.422800        9.9155900
       1356.0100        35.654900        9.7439600
       1377.9400        34.749200        9.5748100
       1400.2300        33.661100        9.4083700
       1422.8800        32.319700        9.2445600
       1445.8900        30.602300        9.0834900
       1469.2800        28.264900        8.9235600
       1493.0400        24.675500        8.7639300
       1517.1900        16.814600        8.6071500
       1527.7000       -12.265600        8.5405700
       1527.9000       -12.263200        27.967300
       1541.7300        17.686300        27.514600
       1566.6700        20.706600        26.726700
       1592.0100        21.166500        32.773700
       1617.7600        28.005800        38.119900
       1643.9200        33.086300        37.292400
       1670.5100        36.294100        36.482500
       1697.5300        38.712400        35.689800
       1724.9900        40.646200        34.913800
       1752.8900        42.235000        34.155200
       1781.2400        43.553400        33.413100
       1810.0500        44.639700        32.686800
       1839.3200        45.506100        31.976600
       1869.0700        46.130900        31.281900
       1899.3000        46.414700        30.602200
       1930.0200        45.882200        29.937100
       1949.7000        37.987400        29.524200
       1949.9000        37.995900        34.586100
       1961.2400        45.996600        34.277700
       1992.9600        48.942700        33.438800
       2025.2000        50.508300        32.628900
       2057.9500        51.635700        31.831600
       2091.2400        52.482000        31.054500
       2125.0600        53.055100        30.296600
       2159.4300        53.052900        29.558000
       2172.9000        50.220600        29.276700
       2173.1000        50.225000        31.268500
       2194.3600        54.052700        30.822600
       2229.8500        55.290400        30.101700
       2265.9200        56.132400        29.398700
       2302.5700        56.787400        28.712700
       2339.8100        57.233700        28.044100
       2377.6600        57.289200        27.799500
       2398.0000        56.523200        27.670600
       2398.2000        56.537100        28.234700
       2416.1100        58.066000        27.949100
       2455.1900        58.958900        27.343000
       2494.9000        59.613800        26.748600
       2535.2600        60.173400        26.165400
       2576.2600        60.670700        25.592600
       2617.9300        61.121000        25.031100
       2660.2700        61.532200        24.480000
       2703.3000        61.911300        23.940100
       2747.0300        62.260500        23.409800
       2791.4600        62.583600        22.890600
       2836.6100        62.883000        22.381200
       2882.4900        63.161100        21.882300
       2929.1100        63.418800        21.393000
       2976.4800        63.658500        20.913900
       3024.6300        63.880600        20.444000
       3073.5500        64.087000        19.984300
       3123.2600        64.278200        19.533600
       3173.7800        64.455700        19.092800
       3225.1100        64.620900        18.660800
       3277.2700        64.773000        18.236600
       3330.2800        64.913500        17.822100
       3384.1500        65.042700        17.416000
       3438.8800        65.161700        17.019000
       3494.5000        65.271400        16.630300
       3551.0200        65.371900        16.249000
       3608.4600        65.462800        15.875800
       3666.8200        65.546100        15.511300
       3726.1300        65.621200        15.153200
       3786.4000        65.688100        14.803500
       3847.6400        65.748300        14.461800
       3909.8700        65.801800        14.126800
       3973.1100        65.848700        13.799000
       4037.3800        65.889200        13.478100
       4102.6800        65.923700        13.164400
       4169.0300        65.952500        12.857300
       4236.4600        65.975700        12.556800
       4304.9800        65.993700        12.262900
       4374.6200        66.006500        11.975400
       4445.3700        66.014400        11.694200
       4517.2700        66.017600        11.419300
       4590.3300        66.016200        11.150100
       4664.5800        66.010300        10.887200
       4740.0300        66.000200        10.629900
       4816.6900        65.985800        10.378300
       4894.6000        65.967400        10.132200
       4973.7700        65.944900        9.8916000
       5054.2100        65.918500        9.6564600
       5135.9600        65.888200        9.4264700
       5219.0300        65.854000        9.2016900
       5303.4400        65.816100        8.9818700
       5389.2200        65.774300        8.7669000
       5476.3900        65.728700        8.5568100
       5564.9700        65.679200        8.3514800
       5654.9800        65.625900        8.1506900
       5746.4400        65.568500        7.9544300
       5839.3900        65.507000        7.7625500
       5933.8300        65.441300        7.5750600
       6029.8100        65.371300        7.3916400
       6127.3300        65.296500        7.2124200
       6226.4400        65.216900        7.0374000
       6327.1500        65.132400        6.8662600
       6429.4800        65.042300        6.6989100
       6533.4800        64.946400        6.5352800
       6639.1500        64.844000        6.3753900
       6746.5400        64.734700        6.2191600
       6855.6500        64.617800        6.0665800
       6966.5400        64.492500        5.9172600
       7079.2200        64.357600        5.7712500
       7193.7200        64.212000        5.6287300
       7310.0700        64.054000        5.4891900
       7428.3100        63.881700        5.3529500
       7548.4500        63.692700        5.2198500
       7670.5400        63.483600        5.0895300
       7794.6100        63.250100        4.9623700
       7920.6800        62.986700        4.8381100
       8048.7900        62.684600        4.7164100
       8178.9800        62.331100        4.5974500
       8311.2600        61.906500        4.4813400
       8445.6900        61.375700        4.3676700
       8582.2900        60.668900        4.2567300
       8721.1100        59.609600        4.1481700
       8862.1600        57.462800        4.0421900
       8943.5000        42.784600        3.9830600
       8943.7000        42.786000        10.908400
       9005.5000        56.948200        10.769800
       9151.1600        59.588000        10.453700
       9299.1700        60.646300        10.147000
       9449.5800        61.198000        9.8490500
       9602.4200        61.421700        9.5596400
       9757.7300        61.288400        9.2792400
       9915.5500        60.240900        9.0067400
       9978.1000        53.095900        8.9021700
       9978.3000        53.096600        12.452500
       10075.900        61.050300        12.231700
       10238.900        62.260600        11.876400
       10404.500        62.532000        11.531300
       10486.300        59.290900        11.366600
       10486.500        59.291600        13.034800
       10572.800        63.184200        12.875700
       10743.800        64.274700        12.569900
       10917.600        64.981400        12.269600
       11094.200        65.537500        11.975000
       11273.600        66.002200        11.685900
       11455.900        66.402500        11.402500
       11641.200        66.753300        11.124600
       11829.500        67.064500        10.852200
       12020.800        67.342800        10.585400
       12215.300        67.593300        10.324000
       12412.800        67.819500        10.068000
       12613.600        68.024700        9.8173700
       12817.600        68.211300        9.5720700
       13025.000        68.381100        9.3320200
       13235.600        68.536000        9.0971700
       13449.700        68.677400        8.8674500
       13667.200        68.806500        8.6427900
       13888.300        68.924400        8.4231400
       14112.900        69.032100        8.2084100
       14341.200        69.130300        7.9985400
       14573.100        69.219800        7.7934500
       14808.900        69.301300        7.5930800
       15048.400        69.375400        7.3973300
       15291.800        69.442700        7.2061500
       15539.100        69.503600        7.0194500
       15790.400        69.558500        6.8371400
       16045.800        69.608000        6.6591700
       16305.400        69.652300        6.4854400
       16569.100        69.691900        6.3158700
       16837.100        69.727000        6.1504000
       17109.400        69.757900        5.9889400
       17386.100        69.785000        5.8314100
       17667.400        69.808400        5.6777300
       17953.100        69.828500        5.5278300
       18243.500        69.845400        5.3816300
       18538.600        69.859300        5.2390600
       18838.400        69.870500        5.1000400
       19143.100        69.879100        4.9644900
       19452.700        69.885200        4.8323400
       19767.400        69.889100        4.7035100
       20087.100        69.890900        4.5779400
       20412.000        69.890700        4.4555500
       20742.100        69.888700        4.3362700
       21077.600        69.884900        4.2200300
       21418.500        69.879500        4.1067700
       21765.000        69.872600        3.9964000
       22117.000        69.864300        3.8888800
       22474.700        69.854700        3.7841300
       22838.200        69.843800        3.6820800
       23207.600        69.831800        3.5826800
       23583.000        69.818800        3.4858600
       23964.400        69.804700        3.3915600
       24352.000        69.789700        3.2997100
       24745.900        69.773800        3.2102700
       25146.200        69.757100        3.1231700
       25552.900        69.739700        3.0383500
       25966.200        69.721500        2.9557600
       26386.100        69.702700        2.8753400
       26812.900        69.683300        2.7970500
       27246.600        69.663200        2.7208200
       27687.300        69.642700        2.6466100
       28135.100        69.621600        2.5743600
       28590.200        69.600000        2.5040300
       29052.600        69.578000        2.4355700
       29522.500        69.555500        2.3689200
       30000.000        69.532700        2.3040500
       30400.000        69.409900        2.1789000
       30800.000        69.391400        2.1297100
       31200.000        69.372800        2.0822600
       31500.000        69.358900        2.0477400
       31900.000        69.340300        2.0031100
       32300.000        69.321700        1.9599900
       32600.000        69.307700        1.9285900
       33000.000        69.289100        1.8879500
       33400.000        69.270600        1.8484100
       33800.000        69.252000        1.8101600
       34100.000        69.238100        1.7822800
       34500.000        69.219600        1.7461400
       35200.000        69.187100        1.6855400
       35956.900        69.152100        1.6234800
       36030.000        69.148700        1.6176800
       36500.000        69.126800        1.5811300
       37000.000        69.103600        1.5436500
       37500.000        69.080400        1.5075500
       38000.000        69.057200        1.4727500
       38500.000        69.033900        1.4391900
       39000.000        69.010600        1.4068200
       39500.000        68.987300        1.3755700
       40000.000        68.964000        1.3454000
       40800.000        68.926400        1.2988800
       41500.000        68.893100        1.2602000
       42300.000        68.854500        1.2181600
       43000.000        68.820300        1.1831400
       43800.000        68.780600        1.1450100
       44500.000        68.745100        1.1132000
       45300.000        68.703800        1.0784600
       46000.000        68.666700        1.0493700
       46500.000        68.639600        1.0293300
       47000.000        68.611900        1.0098900
       47500.000        68.583500       0.99100900
       48000.000        68.554500       0.97267600
       48500.000        68.524700       0.95486700
       49000.000        68.494000       0.93756200
       49500.000        68.462400       0.92074100
       49800.000        68.442900       0.91092900
       50000.000        68.429800       0.90438700
       50500.000        68.395900       0.88861500
       51000.000        68.360700       0.87284200
       51500.000        68.324100       0.85791100
       52000.000        68.285700       0.84297900
       52500.000        68.245500       0.82882800
       53000.000        68.203100       0.81467700
       53500.000        68.158300       0.80125200
       53800.000        68.130100       0.79319800
       54000.000        68.110600       0.78782800
       54300.000        68.080600       0.78018000
       54500.000        68.059800       0.77508100
       54800.000        68.027600       0.76743200
       55000.000        68.005300       0.76233300
       55300.000        67.970400       0.75504700
       55500.000        67.946200       0.75018900
       55800.000        67.908400       0.74290300
       56000.000        67.882000       0.73804500
       56200.000        67.854600       0.73340100
       56400.000        67.826000       0.72875800
       56600.000        67.796300       0.72411400
       56800.000        67.765300       0.71947100
       57000.000        67.732900       0.71499900
       57200.000        67.698900       0.71052700
       57400.000        67.663200       0.70605600
       57530.000        67.639100       0.70314900
       57660.000        67.614000       0.70032600
       57800.000        67.586000       0.69728600
       58000.000        67.543900       0.69294300
       58150.000        67.510700       0.68976100
       58300.000        67.475800       0.68657900
       58400.000        67.451600       0.68445800
       58500.000        67.426500       0.68233700
       58650.000        67.387100       0.67926900
       58800.000        67.345500       0.67620200
       58900.000        67.316400       0.67415700
       59000.000        67.285900       0.67211200
       59150.000        67.237800       0.66904500
       59300.000        67.186200       0.66597700
       59420.000        67.142200       0.66352300
       59540.000        67.095300       0.66106900
       59600.000        67.070700       0.65988500
       59670.000        67.040900       0.65850300
       59800.000        66.982200       0.65593700
       59900.000        66.933600       0.65396400
       59950.000        66.908100       0.65297700
       60000.000        66.881700       0.65199000
       60100.000        66.825800       0.65009200
       60200.000        66.765400       0.64819300
       60250.000        66.733400       0.64724400
       60300.000        66.699800       0.64629500
       60350.000        66.664800       0.64534600
       60400.000        66.628000       0.64439700
       60480.000        66.565300       0.64287800
       60550.000        66.505800       0.64154900
       60590.000        66.469600       0.64079000
       60630.000        66.431700       0.64003100
       60660.000        66.402000       0.63946100
       60700.000        66.360500       0.63870200
       60750.000        66.305300       0.63775300
       60800.000        66.245900       0.63680300
       60850.000        66.181600       0.63585400
       60900.000        66.111600       0.63490500
       60920.000        66.081800       0.63452500
       60950.000        66.034900       0.63395600
       60970.000        66.002000       0.63357600
       61000.000        65.949900       0.63300700
       61020.000        65.913100       0.63262700
       61050.000        65.854700       0.63205800
       61080.000        65.791700       0.63148800
       61100.000        65.746700       0.63110900
       61130.000        65.674200       0.63053900
       61150.000        65.622000       0.63015900
       61170.000        65.566100       0.62978000
       61200.000        65.474400       0.62921000
       61210.000        65.441400       0.62902000
       61220.000        65.407000       0.62883100
       61235.000        65.352500       0.62854600
       61250.000        65.294100       0.62826100
       61260.000        65.252700       0.62807100
       61270.000        65.209100       0.62788100
       61285.000        65.139100       0.62759700
       61300.000        65.062500       0.62731200
       61310.000        65.007300       0.62712200
       61320.000        64.948000       0.62693200
       61330.000        64.884100       0.62674200
       61340.000        64.815000       0.62655300
       61350.000        64.739500       0.62636300
       61360.000        64.656400       0.62617300
       61365.000        64.611600       0.62607800
       61370.000        64.564200       0.62598300
       61375.000        64.513900       0.62588800
       61380.000        64.460400       0.62579300
       61385.000        64.403200       0.62569800
       61390.000        64.341800       0.62560300
       61395.000        64.275500       0.62550800
       61400.000        64.203600       0.62541400
       61405.000        64.124800       0.62531900
       61410.000        64.037900       0.62522400
       61415.000        63.940800       0.62512900
       61418.000        63.876800       0.62507200
       61420.000        63.831300       0.62503400
       61423.000        63.757700       0.62497700
       61425.000        63.704900       0.62493900
       61428.000        63.618900       0.62488200
       61430.000        63.556100       0.62484400
       61433.000        63.452400       0.62478700
       61435.000        63.375400       0.62474900
       61438.000        63.244600       0.62469200
       61440.000        63.144600       0.62465400
       61442.000        63.031000       0.62461600
       61444.000        62.899100       0.62457800
       61445.000        62.825500       0.62455900
       61446.000        62.743900       0.62454000
       61447.000        62.654000       0.62452100
       61448.000        62.553000       0.62450200
       61449.000        62.438900       0.62448300
       61450.000        62.306200       0.62446400
       61451.000        62.150300       0.62444500
       61452.000        61.959600       0.62442600
       61453.000        61.717600       0.62440700
       61454.000        61.387100       0.62438800
       61454.700        61.064100       0.62437500
       61455.300        60.673800       0.62436400
       61455.900        60.081000       0.62435200
       61456.500        59.003500       0.62434100
       61456.500        58.996500       0.62434100
       61456.600        59.161300        1.3902500
       61456.700        59.380900        2.1561600
       61456.800        59.584000        2.9220700
       61457.100        60.214000        5.2198000
       61457.700        61.428600        9.8152500
       61458.500        62.859500       0.62430400
       61458.800        63.505700       0.62430000
       61459.000        63.777300       0.62429600
       61459.800        62.342000        1.8408400
       61461.000        61.624100        2.1202000
       61461.700        61.581800        3.3161500
       61462.500        61.890300        3.3189200
       61463.300        62.320100        3.3144600
       61464.000        62.455200        3.3105400
       61464.500        62.530600        3.3077800
       61465.000        62.599200        3.3050200
       61466.000        62.715400        3.2994700
       61466.800        62.793500        3.2947900
       61467.500        62.855900        3.2906900
       61468.300        62.920300        3.2860200
       61469.000        62.972000        3.2819200
       61469.500        63.005900        3.2790200
       61470.000        63.038200        3.2761100
       61471.000        63.098500        3.2702600
       61472.500        63.178400        3.2661600
       61474.000        63.251400        3.2620500
       61475.000        63.295300        3.2593200
       61476.000        63.336100        3.2565900
       61477.000        63.374100        3.2565700
       61478.000        63.411300        3.2565500
       61480.000        63.479300        3.2565100
       61483.000        63.572400        3.2616900
       61485.000        63.629700        3.2651500
       61488.000        63.710000        3.2724600
       61490.000        63.760800        3.2773300
       61493.000        63.833400        3.2841500
       61495.000        63.879800        3.2886900
       61498.000        63.946200        3.2933900
       61500.000        63.988700        3.2965200
       61504.000        64.069400        3.2996600
       61508.000        64.144000        3.3002500
       61512.000        64.212600        3.2988400
       61515.000        64.260500        3.2968600
       61519.000        64.319400        3.2934100
       61523.000        64.373400        3.2899500
       61527.000        64.423500        3.2869300
       61530.000        64.458500        3.2846700
       61535.000        64.513600        3.2822900
       61540.000        64.564500        3.2799100
       61545.000        64.612200        3.2795000
       61550.000        64.657700        3.2791000
       61560.000        64.743100        3.2801900
       61570.000        64.822800        3.2811000
       61578.000        64.882100        3.2799400
       61585.000        64.930300        3.2789200
       61593.000        64.982100        3.2777600
       61600.000        65.024700        3.2767400
       61615.000        65.109600        3.2756200
       61630.000        65.187000        3.2745000
       61640.000        65.235400        3.2737500
       61650.000        65.280800        3.2730000
       61660.000        65.324200        3.2722500
       61670.000        65.365500        3.2715000
       61685.000        65.424000        3.2703800
       61700.000        65.478800        3.2692600
       61710.000        65.513500        3.2686300
       61720.000        65.547000        3.2680100
       61750.000        65.640500        3.2661300
       61770.000        65.697900        3.2648800
       61800.000        65.777900        3.2630000
       61815.000        65.815500        3.2617000
       61830.000        65.851400        3.2603900
       61850.000        65.897100        3.2586500
       61870.000        65.940500        3.2569100
       61890.000        65.981800        3.2551800
       61910.000        66.021300        3.2534400
       61950.000        66.095200        3.2499600
       61980.000        66.146800        3.2477000
       62020.000        66.211300        3.2446900
       62060.000        66.271600        3.2416700
       62100.000        66.327900        3.2386600
       62140.000        66.381000        3.2362500
       62180.000        66.431400        3.2338400
       62220.000        66.479500        3.2314300
       62250.000        66.514300        3.2296200
       62290.000        66.558800        3.2265600
       62330.000        66.601100        3.2235000
       62360.000        66.631700        3.2212000
       62400.000        66.671200        3.2181400
       62480.000        66.745100        3.2108000
       62550.000        66.804800        3.2043800
       62630.000        66.868200        3.1968600
       62700.000        66.919500        3.1902800
       62800.000        66.987900        3.1828300
       62900.000        67.052000        3.1753700
       63000.000        67.112000        3.1685600
       63100.000        67.168600        3.1617500
       63180.000        67.211800        3.1566300
       63250.000        67.248200        3.1521400
       63330.000        67.288600        3.1470200
       63400.000        67.323000        3.1425400
       63480.000        67.360900        3.1363700
       63550.000        67.392700        3.1309600
       63630.000        67.427800        3.1247900
       63700.000        67.457600        3.1193800
       63850.000        67.518400        3.1078100
       63920.000        67.545400        3.1024000
       64000.000        67.575500        3.0962300
       64100.000        67.611800        3.0878900
       64200.000        67.646400        3.0795600
       64300.000        67.679500        3.0712200
       64400.000        67.711400        3.0628800
       64550.000        67.756900        3.0503800
       64700.000        67.800000        3.0378700
       64800.000        67.827600        3.0300000
       64900.000        67.854200        3.0221300
       65000.000        67.879700        3.0142700
       65100.000        67.904400        3.0064000
       65250.000        67.940500        2.9954800
       65400.000        67.975100        2.9845600
       65600.000        68.018900        2.9710300
       65800.000        68.061300        2.9575000
       65950.000        68.092100        2.9476000
       66100.000        68.122100        2.9377000
       66300.000        68.160500        2.9245100
       66500.000        68.197300        2.9113300
       66700.000        68.232800        2.8981400
       66830.000        68.255200        2.8895700
       66960.000        68.277200        2.8809800
       67100.000        68.300400        2.8717300
       67250.000        68.324400        2.8618200
       67400.000        68.347700        2.8519100
       67700.000        68.392600        2.8323200
       67850.000        68.414300        2.8225200
       68000.000        68.435600        2.8127200
       68300.000        68.476500        2.7927900
       68500.000        68.502500        2.7794900
       68800.000        68.539800        2.7595600
       69000.000        68.563800        2.7462700
       69300.000        68.598400        2.7266300
       69500.000        68.620400        2.7135400
       69800.000        68.652100        2.6938900
       70000.000        68.672400        2.6808000
       70300.000        68.701800        2.6620000
       70500.000        68.720700        2.6494700
       70800.000        68.748100        2.6306600
       71000.000        68.765700        2.6181300
       71300.000        68.791200        2.6000300
       71500.000        68.807700        2.5879600
       71800.000        68.831600        2.5698500
       72000.000        68.847000        2.5577800
       72200.000        68.862000        2.5461000
       72400.000        68.876600        2.5344300
       72600.000        68.890800        2.5227600
       72800.000        68.904700        2.5110800
       73000.000        68.918000        2.4999700
       73200.000        68.931000        2.4888700
       73500.000        68.950200        2.4722100
       73900.000        68.975000        2.4507400
       74200.000        68.993000        2.4346400
       74600.000        69.016000        2.4137200
       74960.000        69.036000        2.3948900
       75200.000        69.048900        2.3826500
       75500.000        69.064600        2.3673600
       75800.000        69.079900        2.3523400
       76000.000        69.089800        2.3423300
       76300.000        69.104300        2.3277200
       76600.000        69.118500        2.3131100
       76900.000        69.132200        2.2985000
       77110.000        69.141600        2.2882700
       77500.000        69.158600        2.2701200
       77900.000        69.175400        2.2515000
       78300.000        69.191500        2.2328800
       78600.000        69.203300        2.2189200
       79000.000        69.218600        2.2010100
       79300.000        69.229800        2.1875800
       79700.000        69.244200        2.1700800
       79850.000        69.249600        2.1635100
       80000.000        69.254900        2.1569500
       80400.000        69.268600        2.1397900
       80800.000        69.281800        2.1226200
       81200.000        69.294500        2.1054600
       81500.000        69.303800        2.0925900
       81900.000        69.315800        2.0762400
       82300.000        69.327400        2.0598900
       82700.000        69.338700        2.0435300
       83000.000        69.347100        2.0312700
       83300.000        69.355200        2.0192800
       83500.000        69.360400        2.0112800
       84000.000        69.373200        1.9913000
       84500.000        69.385300        1.9719400
       85000.000        69.397000        1.9525800
       85400.000        69.405900        1.9376700
       85800.000        69.414600        1.9227600
       86200.000        69.423000        1.9078500
       86500.000        69.429200        1.8966700
       86900.000        69.437200        1.8824300
       87300.000        69.444900        1.8682000
       88000.000        69.458100        1.8432800
       88500.000        69.467000        1.8259000
       89000.000        69.475600        1.8085200
       89500.000        69.483800        1.7916500
       90000.000        69.491700        1.7747900
       90800.000        69.503700        1.7484800
       91500.000        69.513500        1.7254500
       92300.000        69.523900        1.7002800
       93000.000        69.532500        1.6782500
       93500.000        69.538200        1.6630700
       94000.000        69.543800        1.6478800
       94500.000        69.549100        1.6331300
       95000.000        69.554100        1.6183700
       95800.000        69.561700        1.5957800
       96500.000        69.568100        1.5760200
       97300.000        69.574900        1.5543600
       98000.000        69.580600        1.5354100
       99000.000        69.588100        1.5092500
       99500.000        69.591700        1.4964400
       100000.00        69.595000        1.4838000
